# This standard spectrum was made by Joe Hennawi by combining the
# Massey P., Strobel K., Barnes J.V., Anderson E. Astrophys. J. 328, 315 (1988)
# measurements with the Hamuy standards on the ESO webpage, i.e. 
# (Hamuy et al., PASP, 104, 533, 1992); 
#the second to wavelengths from 6000 to 10500A (Hamuy et al., PASP, 
# 106, 566, 1994). 
#http://www.eso.org/sci/observing/tools/standards/spectra/hamuystandards.html
# Note that the Massey data were presented in the Hayes-Latham system 
# system which I converted assuming they were AB mags. This probably 
# results in a small shift, but it matches on very well to the Hamuy data. 
#      LAM            FLAM (1d-16)
      3128.78       2594.6033
      3130.86       2532.1733
      3132.94       2665.1146
      3135.02       2857.1913
      3137.10       2979.6332
      3139.19       3067.5155
      3141.27       3172.5688
      3143.35       3215.4046
      3145.43       3178.7829
      3147.51       3085.2204
      3149.59       2931.6494
      3151.67       2938.5844
      3153.76       3067.3608
      3155.84       3163.6738
      3157.92       3293.2076
      3160.00       3353.1021
      3162.08       3305.7873
      3164.16       3141.2563
      3166.24       3346.0473
      3168.32       3366.3641
      3170.41       3374.3564
      3172.49       3369.9298
      3174.57       3462.9903
      3176.65       3591.5486
      3178.73       3623.3737
      3180.81       3595.3777
      3182.89       3627.2395
      3184.98       3669.5131
      3187.06       3685.0285
      3189.14       3731.4179
      3191.22       3873.5318
      3193.30       3954.9490
      3195.38       3975.3456
      3197.46       3955.5731
      3199.55       3921.4264
      3201.63       3912.7261
      3203.71       3976.6285
      3205.79       4056.4931
      3207.87       4126.5475
      3209.95       4083.4171
      3212.03       4011.0720
      3214.11       3983.8042
      3216.20       3971.3279
      3218.28       3904.5749
      3220.36       3741.2111
      3222.44       3681.7225
      3224.52       3714.4123
      3226.60       3831.1537
      3228.68       3977.1259
      3230.77       4132.4698
      3232.85       4207.7533
      3234.93       4159.9806
      3237.01       4108.9667
      3239.09       4122.6300
      3241.17       4182.3128
      3243.25       4254.6000
      3245.34       4160.0788
      3247.42       4030.3677
      3249.50       4032.6275
      3251.58       4136.4903
      3253.66       4192.5297
      3255.74       4206.4986
      3257.82       4220.5174
      3259.90       4289.5428
      3261.99       4448.9375
      3264.07       4546.7654
      3266.15       4659.6017
      3268.23       4636.5565
      3270.31       4405.9771
      3272.39       4156.1375
      3274.47       4015.4799
      3276.56       3890.3219
      3278.64       3800.4404
      3280.72       3880.4561
      3282.80       4013.5802
      3284.88       4117.0062
      3286.96       4157.4880
      3289.04       4110.3737
      3291.13       4189.2077
      3293.21       4317.0050
      3295.29       4367.5083
      3297.37       4262.7069
      3299.45       4152.7637
      3301.53       4128.4760
      3303.61       4104.3307
      3305.69       4061.5818
      3307.78       4034.1186
      3309.86       4021.6282
      3311.94       4061.2146
      3314.02       4131.5258
      3316.10       4199.1859
      3318.18       4213.2784
      3320.26       4180.9551
      3322.35       4129.8206
      3324.43       4124.6511
      3326.51       4176.7963
      3328.59       4256.9657
      3330.67       4350.6791
      3332.75       4438.2799
      3334.83       4412.3743
      3336.92       4263.1471
      3339.00       4157.0834
      3341.08       4155.7333
      3343.16       4302.3575
      3345.24       4308.8963
      3347.32       4291.6636
      3349.40       4286.3312
      3351.48       4316.6423
      3353.57       4283.5797
      3355.65       4301.9770
      3357.73       4296.6456
      3359.81       4236.3452
      3361.89       4207.7820
      3363.97       4179.4181
      3366.05       4162.7317
      3368.14       4153.7599
      3370.22       4167.7806
      3372.30       4113.0949
      3374.38       4176.6941
      3376.46       4272.6481
      3378.54       4310.8386
      3380.62       4293.6547
      3382.71       4324.0669
      3384.79       4294.9483
      3386.87       4219.1421
      3388.95       4167.6425
      3391.03       4189.4512
      3393.11       4215.2600
      3395.19       4229.5260
      3397.27       4158.7167
      3399.36       4219.1741
      3401.44       4217.8934
      3403.52       4181.8121
      3405.60       4126.9884
      3407.68       4091.6910
      3409.76       4038.0556
      3411.84       3977.7919
      3413.93       3932.8964
      3416.01       3964.4526
      3418.09       3970.5830
      3420.17       3951.1655
      3422.25       3888.6325
      3424.33       3887.4872
      3426.41       3954.9499
      3428.50       3957.4319
      3430.58       3927.2300
      3432.66       3936.9488
      3434.74       3928.5576
      3436.82       3859.2868
      3438.90       3791.2371
      3440.98       3769.2537
      3443.06       3870.1734
      3445.15       3908.4585
      3447.23       3896.5532
      3449.31       3856.1744
      3451.39       3930.3610
      3453.47       3991.2505
      3455.55       4038.1800
      3457.63       4070.6405
      3459.72       4126.1015
      3461.80       4140.1647
      3463.88       4116.1907
      3465.96       4077.3108
      3468.04       4068.6680
      3470.12       3993.2916
      3472.20       4006.9163
      3474.29       4005.8065
      3476.37       3927.9825
      3478.45       3830.4489
      3480.53       3861.2702
      3482.61       3874.4581
      3484.69       3841.4208
      3486.77       3756.4128
      3488.85       3738.1362
      3490.94       3750.9112
      3493.02       3749.8955
      3495.10       3776.6063
      3497.18       3817.5508
      3499.26       3841.2072
      3501.34       3850.8052
      3503.42       3867.5435
      3505.51       3891.5221
      3507.59       3872.6094
      3509.67       3839.6233
      3511.75       3835.0736
      3513.83       3876.6702
      3515.91       3907.9103
      3517.99       3957.5890
      3520.08       4004.2110
      3522.16       3973.7776
      3524.24       3860.9143
      3526.32       3806.9512
      3528.40       3820.0131
      3530.48       3890.0269
      3532.56       3885.4439
      3534.64       3859.4837
      3536.73       3894.1960
      3538.81       3980.2191
      3540.89       4023.4267
      3542.97       4026.1099
      3545.05       4006.5969
      3547.13       3957.9091
      3549.21       3877.5399
      3551.30       3791.8153
      3553.38       3769.9729
      3555.46       3817.9420
      3557.54       3852.3105
      3559.62       3840.7261
      3561.70       3871.7323
      3563.78       3935.4820
      3565.87       3981.9034
      3567.95       4025.1689
      3570.03       4061.4155
      3572.11       4128.2996
      3574.19       4180.8575
      3576.27       4118.6946
      3578.35       4038.8194
      3580.43       3997.1389
      3582.52       4010.9246
      3584.60       4021.0540
      3586.68       4023.7936
      3588.76       3971.2937
      3590.84       3905.0650
      3592.92       3854.1157
      3595.00       3814.3632
      3597.09       3781.9792
      3599.17       3819.5899
      3601.25       3925.6778
      3603.33       4019.8754
      3605.41       4052.3889
      3607.49       4081.4053
      3609.57       4043.0472
      3611.66       3935.5749
      3613.74       3866.4097
      3615.82       3847.7557
      3617.90       3822.1511
      3619.98       3768.8450
      3622.06       3712.8627
      3624.14       3650.9832
      3626.22       3593.4470
      3628.31       3659.4247
      3630.39       3754.1772
      3632.47       3774.1308
      3634.55       3742.1333
      3636.63       3734.4116
      3638.71       3750.8096
      3640.79       3770.7553
      3642.88       3818.8454
      3644.96       3846.2357
      3647.04       3813.6413
      3649.12       3763.9557
      3651.20       3763.1316
      3653.28       3786.6409
      3655.36       3796.2894
      3657.45       3781.5094
      3659.53       3801.6398
      3661.61       3797.3193
      3663.69       3786.0258
      3665.77       3823.7575
      3667.85       3908.3833
      3669.93       3889.5958
      3672.01       3867.3365
      3674.10       3855.8476
      3676.18       3837.3166
      3678.26       3815.3639
      3680.34       3818.0794
      3682.42       3834.8972
      3684.50       3830.5658
      3686.58       3801.6522
      3688.67       3769.4849
      3690.75       3765.2346
      3692.83       3740.2660
      3694.91       3732.6126
      3696.99       3762.9104
      3699.07       3748.3048
      3701.15       3682.5309
      3703.24       3611.2564
      3705.32       3551.1597
      3707.40       3540.6460
      3709.48       3562.8271
      3711.56       3608.3417
      3713.64       3654.4370
      3715.72       3718.2110
      3717.80       3693.5819
      3719.89       3672.4980
      3721.97       3668.3921
      3724.05       3698.1955
      3726.13       3769.6812
      3728.21       3856.7335
      3730.29       3920.4405
      3732.37       3876.5957
      3734.46       3770.2152
      3736.54       3766.0161
      3738.62       3849.4469
      3740.70       4007.8819
      3742.78       4066.6035
      3744.86       3987.9450
      3746.94       3807.7311
      3749.02       3632.3210
      3751.11       3598.3366
      3753.19       3743.0036
      3755.27       3922.2811
      3757.35       4102.5805
      3759.43       4224.5076
      3761.51       4314.1519
      3763.59       4325.2900
      3765.68       4187.3075
      3767.76       3903.5068
      3769.84       3625.5599
      3771.92       3545.6491
      3774.00       3644.3209
      3776.08       3875.5886
      3778.16       4110.1650
      3780.25       4275.4391
      3782.33       4414.7156
      3784.41       4545.9528
      3786.49       4633.9045
      3788.57       4611.7939
      3790.65       4411.5666
      3792.73       4135.3853
      3794.81       3855.1345
      3796.90       3623.7916
      3798.98       3524.4156
      3801.06       3576.1149
      3803.14       3792.5892
      3805.22       4074.3731
      3807.30       4265.6541
      3809.38       4404.6465
      3811.47       4531.4462
      3813.55       4627.6692
      3815.63       4592.9148
      3817.71       4434.1957
      3819.79       4265.2182
      3821.87       4264.5014
      3823.95       4319.1225
      3826.04       4274.8689
      3828.12       4173.0176
      3830.20       4032.5365
      3832.28       3790.5871
      3834.36       3606.0744
      3836.44       3556.0133
      3838.52       3634.8967
      3840.60       3851.4235
      3842.69       4084.6131
      3844.77       4272.4862
      3846.85       4395.5214
      3848.93       4480.6468
      3851.01       4525.5481
      3853.09       4596.2297
      3855.17       4698.2104
      3857.26       4758.4312
      3859.34       4740.1836
      3861.42       4735.0745
      3863.50       4725.6221
      3865.58       4694.5177
      3867.66       4629.3868
      3869.74       4565.1621
      3871.83       4514.2879
      3873.91       4455.7650
      3875.99       4365.7190
      3878.07       4305.1615
      3880.15       4206.5238
      3882.23       4057.4906
      3884.31       3838.7687
      3886.40       3628.4979
      3888.48       3471.0579
      3890.56       3379.0694
      3892.64       3416.1143
      3894.72       3653.1559
      3896.80       3950.0624
      3898.88       4208.6268
      3900.96       4390.1240
      3903.05       4516.6177
      3905.13       4612.6484
      3907.21       4693.3976
      3909.29       4701.3748
      3911.37       4623.4103
      3913.45       4567.7330
      3915.53       4546.0964
      3917.62       4553.8331
      3919.70       4540.6271
      3921.78       4473.5740
      3923.86       4411.5759
      3925.94       4386.6512
      3928.02       4402.2306
      3930.10       4434.1728
      3932.18       4437.6466
      3934.27       4420.7229
      3936.35       4399.8073
      3938.43       4415.4458
      3940.51       4463.9140
      3942.59       4496.3188
      3944.67       4499.8561
      3946.75       4462.1105
      3948.84       4392.2038
      3950.92       4327.3795
      3953.00       4291.0878
      3955.08       4294.4756
      3957.16       4270.2477
      3959.24       4145.6848
      3961.32       3998.8963
      3963.41       3839.5810
      3965.49       3629.3394
      3967.57       3402.2931
      3969.65       3230.8477
      3971.73       3171.4741
      3973.81       3230.0261
      3975.89       3447.8712
      3977.97       3717.8901
      3980.06       3968.6465
      3982.14       4151.3403
      3984.22       4231.8887
      3986.30       4286.2821
      3988.38       4349.3809
      3990.46       4409.3459
      3992.54       4421.0064
      3994.63       4408.2733
      3996.71       4411.8021
      3998.79       4423.4758
      4000.87       4414.8088
      4002.95       4377.8414
      4005.03       4301.3879
      4007.11       4218.4913
      4009.20       4160.1229
      4011.28       4144.3426
      4013.36       4201.5061
      4015.44       4267.3128
      4017.52       4314.2428
      4019.60       4333.6570
      4021.68       4301.3509
      4023.76       4191.3670
      4025.85       4043.0255
      4027.93       3961.4811
      4030.01       4045.8388
      4032.09       4193.3398
      4034.17       4306.3773
      4036.25       4341.7397
      4038.33       4337.2652
      4040.42       4336.7918
      4042.50       4360.3490
      4044.58       4408.3323
      4046.66       4460.9510
      4048.74       4456.3658
      4050.82       4447.6875
      4052.90       4439.0287
      4054.99       4442.6519
      4057.07       4446.2769
      4059.15       4437.6279
      4061.23       4416.7792
      4063.31       4383.9003
      4065.39       4339.2612
      4067.47       4291.1269
      4069.55       4251.3524
      4071.64       4219.7132
      4073.72       4176.7546
      4075.80       4141.8576
      4077.88       4122.4159
      4079.96       4110.6326
      4082.04       4110.2236
      4084.12       4090.9373
      4086.21       4064.2500
      4088.29       4037.7360
      4090.37       4015.0946
      4092.45       3955.9807
      4094.53       3809.0102
      4096.61       3590.6320
      4098.69       3366.1196
      4100.78       3176.0611
      4102.86       3066.5346
      4104.94       3080.4030
      4107.02       3210.4581
      4109.10       3433.4217
      4111.18       3654.9999
      4113.26       3826.9048
      4115.34       3930.1408
      4117.43       3969.8024
      4119.51       3969.4487
      4121.59       3980.0755
      4123.67       4016.5481
      4125.75       4053.3546
      4127.83       4075.4586
      4129.91       4093.9123
      4132.00       4116.2414
      4134.08       4127.2774
      4136.16       4119.3281
      4138.24       4058.7213
      4140.32       3973.3122
      4142.40       3889.6997
      4144.48       3853.7171
      4146.57       3864.0575
      4148.65       3924.7137
      4150.73       4004.7201
      4152.81       4063.8426
      4154.89       4082.2676
      4156.97       4104.5580
      4159.05       4146.0230
      4161.13       4187.9083
      4163.22       4195.2984
      4165.30       4164.1734
      4167.38       4133.2805
      4169.46       4110.1833
      4171.54       4094.7516
      4173.62       4090.6679
      4175.70       4113.0242
      4177.79       4135.5034
      4179.87       4158.1072
      4181.95       4161.6281
      4184.03       4142.2009
      4186.11       4115.2795
      4188.19       4084.7667
      4190.27       4065.7043
      4192.35       4054.1947
      4194.44       4061.3791
      4196.52       4083.5942
      4198.60       4090.8361
      4200.68       4086.7827
      4202.76       4090.2626
      4204.84       4089.9783
      4206.92       4089.6983
      4209.01       4078.1366
      4211.09       4089.1419
      4213.17       4077.5851
      4215.25       4043.6537
      4217.33       4024.8086
      4219.41       4024.5418
      4221.49       4027.9908
      4223.58       4035.1528
      4225.66       4038.6143
      4227.74       4027.2111
      4229.82       4015.8444
      4231.90       4008.2042
      4233.98       4007.9519
      4236.06       4004.0141
      4238.15       3989.0444
      4240.23       3992.4795
      4242.31       4014.3609
      4244.39       4025.2263
      4246.47       4006.4945
      4248.55       3973.1856
      4250.63       3951.0574
      4252.71       3958.1131
      4254.80       3976.1531
      4256.88       3983.2573
      4258.96       3964.7322
      4261.04       3920.9319
      4263.12       3881.1942
      4265.20       3866.7070
      4267.28       3873.6260
      4269.37       3905.6543
      4271.45       3919.8601
      4273.53       3937.7452
      4275.61       3941.1646
      4277.69       3944.5898
      4279.77       3958.9440
      4281.85       3966.0400
      4283.94       3969.4925
      4286.02       3965.6380
      4288.10       3954.4990
      4290.18       3936.1322
      4292.26       3907.0446
      4294.34       3860.3555
      4296.42       3835.3637
      4298.50       3842.2530
      4300.59       3870.4856
      4302.67       3873.8705
      4304.75       3852.3439
      4306.83       3830.9377
      4308.91       3827.2373
      4310.99       3841.1924
      4313.07       3851.6484
      4315.16       3840.8522
      4317.24       3808.9832
      4319.32       3780.8580
      4321.40       3766.7944
      4323.48       3745.8774
      4325.56       3701.1396
      4327.64       3646.8502
      4329.73       3580.1415
      4331.81       3485.6391
      4333.89       3362.5254
      4335.97       3211.0581
      4338.05       3027.1331
      4340.13       2866.9162
      4342.21       2806.7153
      4344.29       2861.4248
      4346.38       3029.4664
      4348.46       3228.1236
      4350.54       3402.0036
      4352.62       3529.5477
      4354.70       3601.6721
      4356.78       3644.9287
      4358.86       3671.7583
      4360.95       3688.5810
      4363.03       3698.6658
      4365.11       3705.3609
      4367.19       3715.4959
      4369.27       3725.6561
      4371.35       3732.4084
      4373.43       3725.4231
      4375.52       3718.4518
      4377.60       3725.1970
      4379.68       3725.0873
      4381.76       3687.4291
      4383.84       3613.3604
      4385.92       3540.7805
      4388.00       3495.3178
      4390.08       3504.8956
      4392.17       3553.5569
      4394.25       3609.5384
      4396.33       3669.7825
      4398.41       3727.6011
      4400.49       3758.5324
      4402.57       3782.7503
      4404.65       3810.6319
      4406.74       3824.6068
      4408.82       3817.4771
      4410.90       3803.3535
      4412.98       3771.8713
      4415.06       3716.6111
      4417.14       3665.5389
      4419.22       3668.8381
      4421.31       3685.6978
      4423.39       3689.0194
      4425.47       3678.7674
      4427.55       3648.3272
      4429.63       3618.1437
      4431.71       3604.7709
      4433.79       3608.0274
      4435.87       3621.2808
      4437.96       3611.2267
      4440.04       3601.2029
      4442.12       3601.1423
      4444.20       3631.0601
      4446.28       3667.9792
      4448.36       3688.2495
      4450.44       3684.8004
      4452.53       3688.1437
      4454.61       3701.7060
      4456.69       3708.4833
      4458.77       3705.0215
      4460.85       3691.3501
      4462.93       3654.0965
      4465.01       3577.4638
      4467.10       3476.7235
