#  Table wf2f702wsys.tab  Mon 12:21:53 02-Jun-97
#
#      WAVELENGTH      THROUGHPUT
#       angstroms                
#
            1850.     4.233167E-8
         1851.651     9.584529E-8
         1853.301     1.498140E-7
         1854.956     2.043965E-7
         1856.611     2.594185E-7
         1858.267     3.149588E-7
         1859.925     3.710530E-7
         1861.584     3.380939E-7
         1863.246     3.005416E-7
         1864.909     2.626176E-7
         1866.572     2.243482E-7
         1868.237     1.857039E-7
         1869.904     1.466626E-7
         1871.573     1.806358E-7
         1873.242     2.194060E-7
         1874.913     2.585401E-7
         1876.585     2.980427E-7
          1878.26     3.379449E-7
         1879.937     3.780745E-7
         1881.613     3.657798E-7
         1883.292     3.512961E-7
         1884.973     3.366741E-7
         1886.654     3.219306E-7
         1888.338     3.070469E-7
         1890.023     2.922106E-7
         1891.709     2.902307E-7
         1893.396     2.882265E-7
         1895.086     2.861967E-7
         1896.775     2.841452E-7
         1898.469     2.820651E-7
         1900.163     2.770353E-7
         1901.857     2.444610E-7
         1903.555     2.115639E-7
         1905.254     1.783830E-7
         1906.953     1.449416E-7
         1908.655     1.111954E-7
         1910.357     8.149213E-8
         1912.061     6.783340E-8
         1913.768     5.404998E-8
         1915.476     4.014834E-8
         1917.184     2.613715E-8
         1918.894     1.200715E-8
         1920.606     8.647886E-9
          1922.32     2.524285E-8
         1924.035     4.197678E-8
         1925.752     5.884163E-8
          1927.47     7.585578E-8
         1929.189     9.300150E-8
          1930.91     9.527627E-8
         1932.634     8.412883E-8
         1934.358     7.288524E-8
         1936.084     6.155248E-8
         1937.811     5.012155E-8
          1939.54     3.858644E-8
          1941.27     3.145493E-8
         1943.003     2.589442E-8
         1944.737     2.028617E-8
          1946.47     1.463723E-8
         1948.207     8.933533E-9
         1949.947     3.178449E-9
         1951.685     4.387025E-9
         1953.427     5.828157E-9
         1955.171     7.281212E-9
         1956.913     8.744466E-9
          1958.66     1.022155E-8
         1960.408     1.124900E-8
         1962.157     1.076140E-8
         1963.908     1.026910E-8
         1965.658     9.773014E-9
         1967.413     9.271916E-9
         1969.169     8.766353E-9
         1970.925     1.352400E-8
         1972.684     2.308270E-8
         1974.444     3.271488E-8
         1976.205     4.242671E-8
         1977.969     5.222996E-8
         1979.734     6.210178E-8
           1981.5     6.512580E-8
         1983.268     6.693874E-8
         1985.037     6.876395E-8
         1986.809     7.060352E-8
         1988.581     7.245528E-8
         1990.355     7.148710E-8
         1992.131     5.914731E-8
         1993.908     4.670398E-8
         1995.688     3.414126E-8
         1997.467     2.149774E-8
          1999.25     8.734196E-9
         2001.034     3.344211E-9
         2002.818     3.358844E-9
         2004.606     3.373541E-9
         2006.396     3.388267E-9
         2008.184     3.403011E-9
         2009.976     3.417811E-9
         2011.769     3.816824E-9
         2013.565     4.224948E-9
         2015.362     4.636890E-9
         2017.158     5.052129E-9
         2018.958     5.471698E-9
          2020.76     6.292212E-9
         2022.563     7.666242E-9
         2024.368     9.054030E-9
         2026.173     1.045376E-8
         2027.982     1.186739E-8
         2029.791     1.329315E-8
         2031.602     2.430084E-8
         2033.414     3.666126E-8
         2035.228     4.913656E-8
         2037.044     6.173492E-8
         2038.861     7.444164E-8
         2040.681     7.721462E-8
         2042.502     6.310552E-8
         2044.324     4.887158E-8
         2046.147     3.450567E-8
         2047.974     1.999648E-8
           2049.8     5.361844E-9
          2051.63     4.393967E-9
         2053.461     5.117987E-9
         2055.291     5.847624E-9
         2057.125     6.584564E-9
         2058.961     7.328058E-9
         2060.798     7.631635E-9
         2062.637     7.354137E-9
         2064.477     7.074141E-9
         2066.318     6.791486E-9
         2068.164     6.505780E-9
         2070.007     6.217462E-9
         2071.855     5.816105E-9
         2073.704     5.411120E-9
         2075.553     5.002712E-9
         2077.405     4.590646E-9
         2079.259     4.174526E-9
         2081.113     5.960559E-9
         2082.971     9.239342E-9
         2084.829     1.254385E-8
         2086.688     1.587591E-8
          2088.55     1.923829E-8
         2090.414     2.363265E-8
         2092.279     3.158757E-8
         2094.145     3.960600E-8
         2096.014     4.769665E-8
         2097.885     5.585250E-8
         2099.756     6.406945E-8
          2101.63     6.182226E-8
         2103.503     5.797492E-8
         2105.381     5.409121E-8
          2107.26     5.017455E-8
         2109.139     4.622782E-8
         2111.022     4.081965E-8
         2112.906     3.416131E-8
         2114.789     2.745904E-8
         2116.677     2.069526E-8
         2118.564     1.388283E-8
         2120.455     8.480361E-9
         2122.348     7.683137E-9
         2124.241     6.880433E-9
         2126.135     6.071506E-9
         2128.033     5.256012E-9
         2129.932     4.434239E-9
         2131.832     5.336859E-9
         2133.734     6.310090E-9
         2135.637     7.290049E-9
         2137.544     8.278156E-9
          2139.45     9.274090E-9
         2141.359     1.300828E-8
          2143.27     1.788192E-8
         2145.182     2.278878E-8
         2147.096     2.773403E-8
         2149.011     3.271216E-8
         2150.929     3.367118E-8
         2152.848     3.030337E-8
         2154.768     2.691159E-8
         2156.692     2.349139E-8
         2158.615     2.005352E-8
         2160.541     1.687596E-8
         2162.469     1.442069E-8
         2164.397     1.195223E-8
          2166.33     9.462672E-9
         2168.263     6.957903E-9
         2170.196     5.072168E-9
         2172.133     8.797924E-9
          2174.07     1.254350E-8
         2176.011     1.631466E-8
         2177.953     2.010866E-8
         2179.895     2.392271E-8
          2181.84     2.085273E-8
         2183.787     1.736860E-8
         2185.735     1.386648E-8
         2187.686     1.034279E-8
         2189.637     6.801415E-9
          2191.59     6.171617E-9
         2193.546     6.210382E-9
         2195.503     6.249298E-9
         2197.462     6.288352E-9
         2199.423     6.327591E-9
         2201.385     6.168968E-9
         2203.348     5.923951E-9
         2205.315     5.674158E-9
         2207.283     5.419749E-9
         2209.252     5.160860E-9
         2211.222     6.417376E-9
         2213.196     8.632887E-9
          2215.17     1.088041E-8
         2217.147     1.316343E-8
         2219.125     1.548047E-8
         2221.104     1.834651E-8
         2223.086     2.167213E-8
         2225.071     2.504764E-8
         2227.055     2.846489E-8
         2229.042     3.193455E-8
         2231.031     3.101609E-8
         2233.021     2.592910E-8
         2235.015     2.076076E-8
         2237.008     1.552339E-8
         2239.003     1.020973E-8
         2241.002     8.056158E-9
         2242.999     9.116897E-9
         2245.002     1.019353E-8
         2247.005     1.128297E-8
         2249.009     1.238660E-8
         2251.016     1.331507E-8
         2253.024     1.406822E-8
         2255.033     1.483035E-8
         2257.046     1.560206E-8
         2259.061     1.638283E-8
         2261.075     1.888295E-8
         2263.092     2.291825E-8
         2265.112     2.700631E-8
         2267.134     3.114488E-8
         2269.156     3.533115E-8
         2271.181     3.607999E-8
         2273.207     3.432559E-8
         2275.234     3.254755E-8
         2277.266     3.074361E-8
         2279.296     2.891955E-8
          2281.33     2.849017E-8
         2283.366     2.881090E-8
         2285.402     2.913349E-8
         2287.441     2.945873E-8
         2289.483     2.978621E-8
         2291.525     2.697513E-8
          2293.57     2.305609E-8
         2295.615     1.909575E-8
         2297.663     1.508828E-8
         2299.715     1.102996E-8
         2301.765     9.841654E-9
          2303.82     9.110180E-9
         2305.876     8.369562E-9
         2307.932     7.620211E-9
         2309.992     6.861105E-9
         2312.051     7.197091E-9
         2314.116     7.541478E-9
          2316.18     7.889087E-9
         2318.246     8.240254E-9
         2320.315     8.606742E-9
         2322.385     9.040663E-9
         2324.457     9.479343E-9
         2326.531     9.922230E-9
         2328.606     1.036966E-8
         2330.685     1.046657E-8
         2332.764     9.837159E-9
         2334.845     9.200277E-9
         2336.927     8.556039E-9
         2339.012     7.904344E-9
         2341.101     7.717058E-9
         2343.188     7.953989E-9
         2345.279     8.193160E-9
         2347.372     8.434690E-9
         2349.467     8.678425E-9
         2351.562     9.024204E-9
         2353.661     9.407836E-9
         2355.759     9.794561E-9
         2357.862     1.018543E-8
         2359.966     1.057992E-8
         2362.071     1.004152E-8
         2364.179     9.481394E-9
         2366.288     8.915616E-9
         2368.398     8.343774E-9
         2370.512     8.108398E-9
         2372.628     8.948951E-9
         2374.744     9.796907E-9
         2376.863     1.065336E-8
         2378.983     1.151737E-8
         2381.105     1.318611E-8
          2383.23     1.560890E-8
         2385.357     1.805413E-8
         2387.485     2.052075E-8
         2389.615     2.300994E-8
         2391.747     2.866667E-8
         2393.881     3.506774E-8
         2396.017     4.153089E-8
         2398.154     4.804819E-8
         2400.293     5.375331E-8
         2402.435     5.399366E-8
          2404.58     5.423464E-8
         2406.724     5.447603E-8
         2408.872     5.471815E-8
         2411.022     5.167206E-8
         2413.171     4.496059E-8
         2415.326     3.817681E-8
         2417.479     3.134589E-8
         2419.637     2.444519E-8
         2421.796     2.104902E-8
         2423.957     1.834852E-8
          2426.12     1.562305E-8
         2428.284     1.287589E-8
         2430.451     1.151696E-8
         2432.619     1.554958E-8
         2434.789     1.961482E-8
         2436.962     2.371601E-8
         2439.136     2.785008E-8
         2441.312     2.737499E-8
          2443.49     2.382833E-8
          2445.67     2.025035E-8
         2447.853     1.664250E-8
         2450.036     1.309546E-8
         2452.222     1.470633E-8
         2454.409     1.632967E-8
           2456.6     1.796664E-8
         2458.792     1.961599E-8
         2460.985     1.999058E-8
          2463.18     1.878330E-8
         2465.379     1.756539E-8
         2467.579     1.633775E-8
         2469.778     1.510173E-8
         2471.983     1.574337E-8
          2474.19     1.660223E-8
         2476.396     1.746582E-8
         2478.606     1.833673E-8
         2480.817     1.817230E-8
         2483.029     1.622167E-8
         2485.247     1.425330E-8
         2487.462     1.227344E-8
         2489.682     1.027593E-8
         2491.904     1.004793E-8
         2494.125     1.011713E-8
         2496.353     1.018679E-8
         2498.579     1.025668E-8
         2500.808     1.030384E-8
          2503.04     1.031045E-8
         2505.272     1.031690E-8
         2507.509     1.032321E-8
         2509.745     1.032936E-8
         2511.985     1.291514E-8
         2514.225     1.585106E-8
         2516.468     1.880888E-8
         2518.714     2.178999E-8
         2520.962     2.243710E-8
          2523.21     1.992692E-8
         2525.462     1.739606E-8
         2527.715     1.484776E-8
         2529.971     1.227863E-8
         2532.229     1.344312E-8
         2534.486     1.466410E-8
         2536.748     1.589534E-8
          2539.01     1.710711E-8
         2541.277     1.702666E-8
         2543.545     1.594016E-8
         2545.813     1.484996E-8
         2548.084     1.375549E-8
         2550.358     1.279165E-8
         2552.635     1.255032E-8
         2554.911     1.230810E-8
         2557.191     1.206465E-8
         2559.471     1.182043E-8
         2561.755     1.698861E-8
         2564.042     2.381232E-8
         2566.329     3.065752E-8
         2568.619     3.753140E-8
         2570.908     4.157476E-8
         2573.205     4.129328E-8
           2575.5     4.101063E-8
         2577.797     4.072636E-8
         2580.097     4.016557E-8
         2582.399     3.337612E-8
         2584.704     2.655561E-8
          2587.01     1.970995E-8
         2589.318     1.284143E-8
         2591.629     1.331101E-8
          2593.94     1.687359E-8
         2596.254     2.044899E-8
         2598.573     2.404244E-8
         2600.889     2.853389E-8
          2603.21     3.448426E-8
         2605.532     4.045299E-8
         2607.856     4.644435E-8
         2610.185     5.161469E-8
         2612.512     4.692215E-8
         2614.843     4.220556E-8
         2617.177     3.746991E-8
          2619.51     3.272127E-8
         2621.849     3.726912E-8
         2624.188     4.430303E-8
         2626.528     5.136330E-8
         2628.873     5.845498E-8
         2631.217     5.640841E-8
         2633.566     4.584146E-8
         2635.916     3.523308E-8
         2638.267     2.458902E-8
          2640.62     1.732593E-8
         2642.977     1.962056E-8
         2645.334     2.192256E-8
         2647.695     2.423452E-8
         2650.057     2.645295E-8
         2652.422     2.458479E-8
         2654.788     2.271022E-8
         2657.157     2.082677E-8
         2659.526     1.893797E-8
         2661.899     2.021602E-8
         2664.275     2.229373E-8
         2666.652     2.437803E-8
         2669.031     2.647124E-8
         2671.412     2.678297E-8
         2673.796     2.586571E-8
         2676.181     2.494517E-8
          2678.57     2.402013E-8
          2680.96     2.621301E-8
          2683.35     3.306760E-8
         2685.746     3.996042E-8
          2688.14     4.686676E-8
          2690.54     5.006386E-8
         2692.941     4.033963E-8
         2695.343     3.058222E-8
         2697.748     2.078195E-8
         2700.153     1.197304E-8
         2702.563     1.814477E-8
         2704.975     2.435871E-8
         2707.387     3.061175E-8
         2709.804     3.691223E-8
         2712.222     3.790105E-8
         2714.642     3.842157E-8
         2717.063     3.894496E-8
         2719.486     3.947131E-8
         2721.915     3.489269E-8
         2724.343     2.891301E-8
         2726.772     2.289129E-8
         2729.205     1.682745E-8
          2731.64     1.440387E-8
         2734.078     1.375764E-8
         2736.517     1.310709E-8
         2738.958     1.245190E-8
         2741.402     1.440698E-8
         2743.849     1.832668E-8
         2746.296     2.227026E-8
         2748.747     2.624289E-8
         2751.198     2.943992E-8
         2753.653     3.181527E-8
         2756.111     3.419575E-8
         2758.569     3.657997E-8
         2761.031     3.533750E-8
         2763.495     2.904159E-8
         2765.958     2.273964E-8
         2768.427     1.641661E-8
         2770.898     1.240330E-8
         2773.369     1.245847E-8
         2775.844     1.251379E-8
          2778.32     1.256919E-8
         2780.799     1.299058E-8
          2783.28     1.418417E-8
         2785.764     1.538037E-8
         2788.249     1.657824E-8
         2790.736     1.736252E-8
         2793.227     1.715680E-8
          2795.72     1.695066E-8
         2798.213     1.674420E-8
         2800.709     1.767220E-8
         2803.209     2.146735E-8
         2805.709     2.526787E-8
         2808.213     2.907865E-8
         2810.718     3.292005E-8
         2813.226     3.683553E-8
         2815.736     4.075639E-8
         2818.247     4.468489E-8
         2820.764     4.621046E-8
         2823.278     4.219571E-8
         2825.798     3.816817E-8
          2828.32     3.413292E-8
         2830.843     3.145296E-8
         2833.369     3.148394E-8
         2835.898     3.151496E-8
         2838.426     3.154599E-8
         2840.959     3.228824E-8
         2843.495     3.420029E-8
         2846.031     3.611472E-8
         2848.571     3.803409E-8
         2851.112     3.619149E-8
         2853.655     2.949914E-8
         2856.202     2.279086E-8
         2858.751     1.607051E-8
         2861.301     1.422845E-8
         2863.853     1.708313E-8
         2866.407     1.994312E-8
         2868.965     2.281004E-8
         2871.526     2.640395E-8
         2874.087     3.049144E-8
         2876.652     3.458905E-8
         2879.218     3.869092E-8
         2881.788     3.615281E-8
         2884.358     3.070030E-8
         2886.931     2.523802E-8
         2889.507     1.976334E-8
         2892.084     2.138778E-8
         2894.666     2.469918E-8
         2897.248     2.801446E-8
         2899.832     3.133490E-8
         2902.421     3.271621E-8
          2905.01     3.395792E-8
         2907.601     3.519716E-8
         2910.198     3.596047E-8
          2912.79     3.097573E-8
         2915.392     2.598808E-8
         2917.992     2.101634E-8
         2920.594     1.715426E-8
         2923.203     1.701244E-8
         2925.807     1.687113E-8
          2928.42     1.672967E-8
         2931.033     2.196779E-8
         2933.646     3.540211E-8
         2936.266     4.883257E-8
         2938.885     6.221765E-8
         2941.506     6.628473E-8
         2944.131     6.346627E-8
         2946.757     6.065513E-8
         2949.387     5.784793E-8
         2952.018     4.996967E-8
         2954.653     4.056275E-8
          2957.29     3.117607E-8
         2959.926     2.182101E-8
         2962.567     1.914915E-8
          2965.21     1.667722E-8
         2967.856     1.420953E-8
         2970.505     1.241461E-8
         2973.155     1.345420E-8
         2975.808     1.449199E-8
         2978.461     1.552598E-8
         2981.121     1.649221E-8
          2983.78     1.736275E-8
         2986.441     1.823114E-8
         2989.104     1.909725E-8
         2991.772     1.862049E-8
         2994.442     1.746778E-8
         2997.113     1.631835E-8
         2999.788     1.517084E-8
         3002.464     1.429732E-8
         3005.142     1.344906E-8
         3007.826     1.260171E-8
         3010.507     1.224208E-8
         3013.194     1.396034E-8
         3015.883     1.567418E-8
         3018.573     1.738248E-8
         3021.267     1.920013E-8
          3023.96     2.113742E-8
          3026.66     2.307305E-8
          3029.36     2.500119E-8
         3032.062     2.576454E-8
          3034.77     2.616669E-8
         3037.475     2.656684E-8
         3040.186     2.665182E-8
         3042.897     2.247671E-8
         3045.612     1.831230E-8
         3048.332     1.415381E-8
         3051.051     1.160215E-8
         3053.772     1.158094E-8
         3056.497     1.155967E-8
         3059.222     1.153838E-8
         3061.954     1.621467E-8
         3064.685     2.273842E-8
         3067.418     2.924412E-8
         3070.156     3.562244E-8
         3072.896     4.012900E-8
         3075.637     4.461985E-8
          3078.38     4.909698E-8
         3081.126     4.715155E-8
         3083.877     3.598705E-8
         3086.628     2.486795E-8
         3089.381     1.378252E-8
         3092.137     1.652166E-8
         3094.895     2.324326E-8
         3097.659     2.995272E-8
         3100.422     3.470760E-8
         3103.187     2.874251E-8
         3105.955     2.275507E-8
         3108.729     1.673780E-8
         3111.501     1.357892E-8
