#  Table wf2f555wsys.tab  Mon 12:21:47 02-Jun-97
#
#      WAVELENGTH      THROUGHPUT
#       angstroms                
#
            1850.     6.983449E-9
         1851.651     6.547984E-7
         1853.301     1.308137E-6
         1854.956     1.968921E-6
         1856.611     2.635042E-6
         1858.267     3.307451E-6
         1859.925     3.986582E-6
         1861.584     4.128777E-6
         1863.246     4.246549E-6
         1864.909     4.365332E-6
         1866.572     4.485042E-6
         1868.237     4.605769E-6
         1869.904     4.727582E-6
         1871.573     4.729039E-6
         1873.242     4.722936E-6
         1874.913     4.716630E-6
         1876.585     4.710121E-6
          1878.26     4.703403E-6
         1879.937     4.694715E-6
         1881.613     4.179321E-6
         1883.292     3.639556E-6
         1884.973     3.094886E-6
         1886.654     2.545932E-6
         1888.338     1.992002E-6
         1890.023     1.439252E-6
         1891.709     1.304924E-6
         1893.396     1.169429E-6
         1895.086     1.032692E-6
         1896.775     8.949601E-7
         1898.469     7.557991E-7
         1900.163     6.584009E-7
         1901.857     9.631442E-7
         1903.555     1.270820E-6
         1905.254     1.581063E-6
         1906.953     1.893656E-6
         1908.655     2.209011E-6
         1910.357     2.414810E-6
         1912.061     2.198701E-6
         1913.768     1.980589E-6
         1915.476     1.760575E-6
         1917.184     1.538798E-6
         1918.894     1.315109E-6
         1920.606     1.108938E-6
          1922.32     9.365077E-7
         1924.035     7.626015E-7
         1925.752     5.873023E-7
          1927.47     4.104189E-7
         1929.189     2.321356E-7
          1930.91     1.368126E-7
         1932.634     1.162303E-7
         1934.358     9.547146E-8
         1936.084     7.454910E-8
         1937.811     5.344653E-8
          1939.54     3.215264E-8
          1941.27     1.340314E-7
         1943.003     2.817326E-7
         1944.737     4.306756E-7
          1946.47     5.806731E-7
         1948.207     7.320984E-7
         1949.947     8.848621E-7
         1951.685     8.659140E-7
         1953.427     8.413091E-7
         1955.171     8.164753E-7
         1956.913     7.914414E-7
          1958.66     7.661460E-7
         1960.408     7.500288E-7
         1962.157     7.648025E-7
         1963.908     7.796890E-7
         1965.658     7.946607E-7
         1967.413     8.097540E-7
         1969.169     8.249531E-7
         1970.925     7.685456E-7
         1972.684     6.468341E-7
         1974.444     5.241615E-7
         1976.205     4.004494E-7
         1977.969     2.755474E-7
         1979.734     1.497465E-7
           1981.5     1.554529E-7
         1983.268     1.848633E-7
         1985.037     2.144970E-7
         1986.809     2.443874E-7
         1988.581     2.744999E-7
         1990.355     3.158012E-7
         1992.131     4.012180E-7
         1993.908     4.873302E-7
         1995.688     5.742470E-7
         1997.467     6.617018E-7
          1999.25     7.499656E-7
         2001.034     7.080274E-7
         2002.818     5.703536E-7
         2004.606     4.310745E-7
         2006.396     2.905139E-7
         2008.184     1.487745E-7
         2009.976     5.492092E-9
         2011.769     1.354972E-8
         2013.565     2.374388E-8
         2015.362     3.403591E-8
         2017.158     4.441282E-8
         2018.958     5.490045E-8
          2020.76     5.796266E-8
         2022.563     5.069760E-8
         2024.368     4.335704E-8
         2026.173     3.595060E-8
         2027.982     2.846792E-8
         2029.791     2.091827E-8
         2031.602     1.831696E-8
         2033.414     1.635165E-8
         2035.228     1.436742E-8
         2037.044     1.236298E-8
         2038.861     1.034065E-8
         2040.681     3.868133E-8
         2042.502     1.183561E-7
         2044.324     1.987223E-7
         2046.147     2.798202E-7
         2047.974     3.617135E-7
           2049.8     4.443013E-7
          2051.63     3.864758E-7
         2053.461     3.107165E-7
         2055.291     2.343460E-7
         2057.125     1.571882E-7
         2058.961     7.932100E-8
         2060.798     4.457522E-8
         2062.637     6.680149E-8
         2064.477     8.921082E-8
         2066.318     1.118158E-7
         2068.164     1.346475E-7
         2070.007     1.575429E-7
         2071.855     1.560582E-7
         2073.704     1.545568E-7
         2075.553     1.530393E-7
         2077.405     1.515049E-7
         2079.259     1.499520E-7
         2081.113     1.336026E-7
         2082.971     1.072049E-7
         2084.829     8.059570E-8
         2086.688     5.376035E-8
          2088.55     2.667653E-8
         2090.414     5.400826E-9
         2092.279     5.178153E-9
         2094.145     4.953566E-9
         2096.014     4.726819E-9
         2097.885     4.498113E-9
         2099.756     4.267557E-9
          2101.63     8.047077E-9
         2103.503     1.245552E-8
         2105.381     1.690394E-8
          2107.26     2.138851E-8
         2109.139     2.590584E-8
         2111.022     3.312309E-8
         2112.906     4.264807E-8
         2114.789     5.223411E-8
         2116.677     6.190636E-8
         2118.564     7.164640E-8
         2120.455     7.614229E-8
         2122.348     6.381286E-8
         2124.241     5.139963E-8
         2126.135     3.889115E-8
         2128.033     2.628210E-8
         2129.932     1.357694E-8
         2131.832     1.157330E-8
         2133.734     9.954653E-9
         2135.637     8.324484E-9
         2137.544     6.680433E-9
          2139.45     5.027848E-9
         2141.359     5.946819E-9
          2143.27     7.923187E-9
         2145.182     9.913018E-9
         2147.096     1.191841E-8
         2149.011     1.393712E-8
         2150.929     1.492456E-8
         2152.848     1.480023E-8
         2154.768     1.467481E-8
         2156.692     1.454816E-8
         2158.615     1.442065E-8
         2160.541     1.381807E-8
         2162.469     1.199419E-8
         2164.397     1.016049E-8
          2166.33     8.311100E-9
         2168.263     6.450398E-9
         2170.196     5.618092E-9
         2172.133     1.401949E-8
          2174.07     2.246564E-8
         2176.011     3.096953E-8
         2177.953     3.952500E-8
         2179.895     4.812572E-8
          2181.84     4.688423E-8
         2183.787     4.506911E-8
         2185.735     4.324432E-8
         2187.686     4.140799E-8
         2189.637     3.956213E-8
          2191.59     4.770440E-8
         2193.546     5.818603E-8
         2195.503     6.871947E-8
         2197.462     7.930092E-8
         2199.423     8.994376E-8
         2201.385     8.131637E-8
         2203.348     6.440763E-8
         2205.315     4.720503E-8
         2207.283     2.971972E-8
         2209.252     1.196140E-8
         2211.222     6.645334E-9
         2213.196     9.102912E-9
          2215.17     1.159604E-8
         2217.147     1.412860E-8
         2219.125     1.669893E-8
         2221.104     3.627065E-8
         2223.086     6.973016E-8
         2225.071     1.037047E-7
         2227.055     1.381121E-7
         2229.042     1.730601E-7
         2231.031     1.770038E-7
         2233.021     1.515059E-7
         2235.015     1.255985E-7
         2237.008     9.934333E-8
         2239.003     7.270400E-8
         2241.002     7.709836E-8
         2242.999     1.130021E-7
         2245.002     1.494581E-7
         2247.005     1.863625E-7
         2249.009     2.237615E-7
         2251.016     2.200028E-7
         2253.024     1.752810E-7
         2255.033     1.299573E-7
         2257.046     8.399553E-8
         2259.061     3.742603E-8
         2261.075     1.874291E-8
         2263.092     2.485417E-8
         2265.112     3.104592E-8
         2267.134     3.731481E-8
         2269.156     4.365656E-8
         2271.181     4.173146E-8
         2273.207     3.377872E-8
         2275.234     2.572595E-8
         2277.266     1.756291E-8
         2279.296     9.315743E-9
          2281.33     1.001141E-8
         2283.366     1.553672E-8
         2285.402     2.112043E-8
         2287.441     2.677618E-8
         2289.483     3.249688E-8
         2291.525     3.003394E-8
          2293.57     2.472435E-8
         2295.615     1.935916E-8
         2297.663     1.392861E-8
         2299.715     8.429068E-9
         2301.765     8.978255E-9
          2303.82     1.052642E-8
         2305.876     1.209236E-8
         2307.932     1.367522E-8
         2309.992     1.527714E-8
         2312.051     1.561225E-8
         2314.116     1.594616E-8
          2316.18     1.628277E-8
         2318.246     1.662239E-8
         2320.315     1.661856E-8
         2322.385     1.467181E-8
         2324.457     1.270108E-8
         2326.531     1.070883E-8
         2328.606     8.693585E-9
         2330.685     7.445673E-9
         2332.764     7.805724E-9
         2334.845     8.169446E-9
         2336.927     8.536769E-9
         2339.012     8.907752E-9
         2341.101     9.734880E-9
         2343.188     1.097706E-8
         2345.279     1.223229E-8
         2347.372     1.350122E-8
         2349.467     1.478302E-8
         2351.562     1.665849E-8
         2353.661     1.875405E-8
         2355.759     2.086781E-8
         2357.862     2.300552E-8
         2359.966     2.516431E-8
         2362.071     2.394662E-8
         2364.179     2.265850E-8
         2366.288     2.135735E-8
         2368.398     2.004222E-8
         2370.512     1.863172E-8
         2372.628     1.695300E-8
         2374.744     1.525828E-8
         2376.863     1.354531E-8
         2378.983     1.181604E-8
         2381.105     2.049139E-8
          2383.23     3.889861E-8
         2385.357     5.747898E-8
         2387.485     7.622451E-8
         2389.615     9.514426E-8
         2391.747     8.436623E-8
         2393.881     6.686991E-8
         2396.017     4.919882E-8
         2398.154     3.137459E-8
         2400.293     1.750392E-8
         2402.435     2.958687E-8
          2404.58     4.177932E-8
         2406.724     5.407185E-8
         2408.872     6.648022E-8
         2411.022     6.909507E-8
         2413.171     6.076465E-8
         2415.326     5.234434E-8
         2417.479     4.386539E-8
         2419.637     3.529968E-8
         2421.796     3.306581E-8
         2423.957     3.211322E-8
          2426.12     3.115116E-8
         2428.284     3.018079E-8
         2430.451     3.074976E-8
         2432.619     3.724189E-8
         2434.789     4.378623E-8
         2436.962     5.038816E-8
         2439.136     5.704270E-8
         2441.312     8.250797E-8
          2443.49     1.205747E-7
          2445.67     1.589691E-7
         2447.853     1.976750E-7
         2450.036     2.353785E-7
         2452.222     1.974996E-7
         2454.409     1.593151E-7
           2456.6     1.207982E-7
         2458.792     8.197761E-8
         2460.985     6.624970E-8
          2463.18     7.919094E-8
         2465.379     9.224018E-8
         2467.579     1.053876E-7
         2469.778     1.186189E-7
         2471.983     1.244843E-7
          2474.19     1.295548E-7
         2476.396     1.346526E-7
         2478.606     1.397929E-7
         2480.817     1.480252E-7
         2483.029     1.615610E-7
         2485.247     1.752144E-7
         2487.462     1.889419E-7
         2489.682     2.027863E-7
         2491.904     1.707905E-7
         2494.125     1.309016E-7
         2496.353     9.063454E-8
         2498.579     5.011175E-8
         2500.808     2.336290E-8
          2503.04     2.127447E-8
         2505.272     1.917138E-8
         2507.509     1.705058E-8
         2509.745     1.491527E-8
         2511.985     1.718670E-8
         2514.225     2.004399E-8
         2516.468     2.292252E-8
         2518.714     2.582362E-8
         2520.962     3.264678E-8
          2523.21     4.474921E-8
         2525.462     5.694865E-8
         2527.715     6.922954E-8
         2529.971     8.160811E-8
         2532.229     6.710442E-8
         2534.486     5.215325E-8
         2536.748     3.707212E-8
          2539.01     2.185309E-8
         2541.277     1.461190E-8
         2543.545     1.360073E-8
         2545.813     1.258612E-8
         2548.084     1.156755E-8
         2550.358     1.249952E-8
         2552.635     2.391896E-8
         2554.911     3.537246E-8
         2557.191     4.687701E-8
         2559.471     5.841023E-8
         2561.755     5.927365E-8
         2564.042     5.689881E-8
         2566.329     5.451570E-8
         2568.619     5.212178E-8
         2570.908     4.774001E-8
         2573.205     4.030721E-8
           2575.5     3.285642E-8
         2577.797     2.537590E-8
         2580.097     1.825886E-8
         2582.399     2.007942E-8
         2584.704     2.190794E-8
          2587.01     2.374284E-8
         2589.318     2.558349E-8
         2591.629     2.770313E-8
          2593.94     2.994343E-8
         2596.254     3.219155E-8
         2598.573     3.445077E-8
         2600.889     3.368348E-8
          2603.21     2.802779E-8
         2605.532     2.235386E-8
         2607.856     1.665763E-8
         2610.185     1.163361E-8
         2612.512     1.473693E-8
         2614.843     1.785556E-8
         2617.177     2.098616E-8
          2619.51     2.412475E-8
         2621.849     2.864993E-8
         2624.188     3.355074E-8
         2626.528     3.846989E-8
         2628.873     4.341089E-8
         2631.217     4.520377E-8
         2633.566     4.406542E-8
         2635.916     4.292208E-8
         2638.267     4.177436E-8
          2640.62     4.636676E-8
         2642.977     6.707543E-8
         2645.334     8.785216E-8
         2647.695     1.087202E-7
         2650.057     1.285514E-7
         2652.422     1.036007E-7
         2654.788     7.856761E-8
         2657.157     5.341904E-8
         2659.526     2.820221E-8
         2661.899     2.630953E-8
         2664.275     3.027732E-8
         2666.652     3.425787E-8
         2669.031     3.825559E-8
         2671.412     3.787031E-8
         2673.796     3.445880E-8
         2676.181     3.103592E-8
          2678.57     2.759719E-8
          2680.96     2.421154E-8
          2683.35     2.091612E-8
         2685.746     1.760178E-8
          2688.14     1.428043E-8
          2690.54     1.809038E-8
         2692.941     4.660872E-8
         2695.343     7.522199E-8
         2697.748     1.039586E-7
         2700.153     1.305375E-7
         2702.563     1.243042E-7
         2704.975     1.180256E-7
         2707.387     1.117049E-7
         2709.804     1.053336E-7
         2712.222     1.071719E-7
         2714.642     1.097506E-7
         2717.063     1.123449E-7
         2719.486     1.149554E-7
         2721.915     9.950769E-8
         2724.343     7.910685E-8
         2726.772     5.856295E-8
         2729.205     3.787572E-8
          2731.64     2.807519E-8
         2734.078     2.358195E-8
         2736.517     1.905998E-8
         2738.958     1.450698E-8
         2741.402     1.316796E-8
         2743.849     1.424340E-8
         2746.296     1.532523E-8
         2748.747     1.641487E-8
         2751.198     1.644508E-8
         2753.653     1.535943E-8
         2756.111     1.427140E-8
         2758.569     1.318164E-8
         2761.031     1.422227E-8
         2763.495     1.823078E-8
         2765.958     2.224312E-8
         2768.427     2.626884E-8
         2770.898     2.764565E-8
         2773.369     2.436454E-8
         2775.844     2.107446E-8
          2778.32     1.777930E-8
         2780.799     2.829338E-8
          2783.28     6.795317E-8
         2785.764     1.076999E-7
         2788.249     1.475024E-7
         2790.736     1.641487E-7
         2793.227     1.254354E-7
          2795.72     8.664274E-8
         2798.213     4.779340E-8
         2800.709     1.977843E-8
         2803.209     1.923935E-8
         2805.709     1.869948E-8
         2808.213     1.815816E-8
         2810.718     1.743434E-8
         2813.226     1.625515E-8
         2815.736     1.507433E-8
         2818.247     1.389119E-8
         2820.764     1.512394E-8
         2823.278     2.190670E-8
         2825.798     2.871099E-8
          2828.32     3.552827E-8
         2830.843     4.614293E-8
         2833.369     6.434998E-8
         2835.898     8.259307E-8
         2838.426     1.008475E-7
         2840.959     1.157850E-7
         2843.495     1.252013E-7
         2846.031     1.346292E-7
         2848.571     1.440816E-7
         2851.112     1.347254E-7
         2853.655     1.011221E-7
         2856.202     6.743886E-8
         2858.751     3.369497E-8
         2861.301     4.601964E-8
         2863.853     1.027160E-7
         2866.407     1.595178E-7
         2868.965     2.164577E-7
         2871.526     2.217493E-7
         2874.087     1.919356E-7
         2876.652     1.620481E-7
         2879.218     1.321292E-7
         2881.788     1.075368E-7
         2884.358     8.528362E-8
         2886.931     6.299053E-8
         2889.507     4.064687E-8
         2892.084     3.220856E-8
         2894.666     2.705211E-8
         2897.248     2.188958E-8
         2899.832     1.671901E-8
         2902.421     1.552137E-8
          2905.01     1.460390E-8
         2907.601     1.368802E-8
         2910.198     1.304886E-8
          2912.79     1.575338E-8
         2915.392     1.845929E-8
         2917.992     2.115637E-8
         2920.594     2.299161E-8
         2923.203     2.193088E-8
         2925.807     2.087468E-8
          2928.42     1.981796E-8
         2931.033     1.849999E-8
         2933.646     1.678319E-8
         2936.266     1.506675E-8
         2938.885     1.335597E-8
         2941.506     1.319327E-8
         2944.131     1.417447E-8
         2946.757     1.515290E-8
         2949.387     1.612972E-8
         2952.018     5.187790E-8
         2954.653     9.812234E-8
          2957.29     1.442654E-7
         2959.926     1.902510E-7
         2962.567     1.584941E-7
          2965.21     1.245808E-7
         2967.856     9.072630E-8
         2970.505     6.086453E-8
         2973.155     4.770845E-8
         2975.808     3.457359E-8
         2978.461     2.148546E-8
         2981.121     1.849263E-8
          2983.78     2.934178E-8
         2986.441     4.016521E-8
         2989.104     5.096177E-8
         2991.772     4.702984E-8
         2994.442     3.568243E-8
         2997.113     2.436826E-8
         2999.788     1.307405E-8
         3002.464     1.376954E-8
         3005.142     1.548939E-8
         3007.826     1.720705E-8
         3010.507     2.209197E-8
         3013.194     4.059585E-8
         3015.883     5.905291E-8
         3018.573     7.745117E-8
         3021.267     7.879390E-8
          3023.96     6.099641E-8
          3026.66     4.321227E-8
          3029.36     2.549482E-8
         3032.062     2.126169E-8
          3034.77     2.120555E-8
         3037.475     2.114948E-8
         3040.186     2.092299E-8
         3042.897     1.838892E-8
         3045.612     1.586131E-8
         3048.332     1.333725E-8
         3051.051     1.181722E-8
         3053.772     1.187863E-8
         3056.497     1.193980E-8
         3059.222     1.200063E-8
         3061.954     1.523474E-8
         3064.685     1.971653E-8
         3067.418     2.418589E-8
         3070.156     2.840745E-8
         3072.896     2.869422E-8
         3075.637     2.897974E-8
          3078.38     2.926417E-8
         3081.126     2.778898E-8
         3083.877     2.378593E-8
         3086.628     1.979906E-8
         3089.381     1.582416E-8
         3092.137     1.637892E-8
         3094.895     1.823920E-8
         3097.659     2.009602E-8
         3100.422     2.476443E-8
         3103.187     4.513861E-8
         3105.955     6.558868E-8
         3108.729     8.614018E-8
         3111.501     1.113418E-7
