#  Table wf2f606wsys.tab  Mon 12:21:48 02-Jun-97
#
#      WAVELENGTH      THROUGHPUT
#       angstroms                
#
            1850.     8.217029E-7
         1851.651     8.679786E-7
         1853.301     9.146246E-7
         1854.956     9.617783E-7
         1856.611     1.009288E-6
         1858.267     1.057223E-6
         1859.925     1.105613E-6
         1861.584     9.896183E-7
         1863.246     8.645964E-7
         1864.909     7.383407E-7
         1866.572     6.109395E-7
         1868.237     4.822939E-7
         1869.904     3.523311E-7
         1871.573     2.966142E-7
         1873.242     2.450007E-7
         1874.913     1.928864E-7
         1876.585     1.402650E-7
          1878.26     8.709533E-8
         1879.937     3.340437E-8
         1881.613     3.144054E-8
         1883.292     3.151741E-8
         1884.973     3.159414E-8
         1886.654     3.167065E-8
         1888.338     3.174704E-8
         1890.023     3.247573E-8
         1891.709     8.066570E-8
         1893.396     1.292601E-7
         1895.086     1.782849E-7
         1896.775     2.276526E-7
         1898.469     2.775179E-7
         1900.163     3.321283E-7
         1901.857     4.281263E-7
         1903.555     5.250448E-7
         1905.254     6.227688E-7
         1906.953     7.212297E-7
         1908.655     8.205571E-7
         1910.357     8.824037E-7
         1912.061     8.000920E-7
         1913.768     7.170182E-7
         1915.476     6.332215E-7
         1917.184     5.487539E-7
         1918.894     4.635596E-7
         1920.606     3.999802E-7
          1922.32     3.768123E-7
         1924.035     3.534392E-7
         1925.752     3.298721E-7
          1927.47     3.060853E-7
         1929.189     2.821035E-7
          1930.91     2.865866E-7
         1932.634     3.167742E-7
         1934.358     3.472073E-7
         1936.084     3.778670E-7
         1937.811     4.087776E-7
          1939.54     4.399555E-7
          1941.27     4.599420E-7
         1943.003     4.759381E-7
         1944.737     4.920568E-7
          1946.47     5.082773E-7
         1948.207     5.246404E-7
         1949.947     5.411362E-7
         1951.685     5.259556E-7
         1953.427     5.096102E-7
         1955.171     4.931142E-7
         1956.913     4.764866E-7
          1958.66     4.596866E-7
         1960.408     4.395017E-7
         1962.157     4.085001E-7
         1963.908     3.772068E-7
         1965.658     3.456805E-7
         1967.413     3.138432E-7
         1969.169     2.817293E-7
         1970.925     2.734380E-7
         1972.684     2.868145E-7
         1974.444     3.002869E-7
         1976.205     3.138639E-7
         1977.969     3.275619E-7
         1979.734     3.413489E-7
           1981.5     3.525779E-7
         1983.268     3.634229E-7
         1985.037     3.743422E-7
         1986.809     3.853484E-7
         1988.581     3.964286E-7
         1990.355     3.959061E-7
         1992.131     3.485057E-7
         1993.908     3.007044E-7
         1995.688     2.524412E-7
         1997.467     2.038644E-7
          1999.25     1.548234E-7
         2001.034     1.295682E-7
         2002.818     1.217295E-7
         2004.606     1.137965E-7
         2006.396     1.057878E-7
         2008.184     9.770922E-8
         2009.976     8.953991E-8
         2011.769     9.614183E-8
         2013.565     1.030078E-7
         2015.362     1.099370E-7
         2017.158     1.169207E-7
         2018.958     1.239763E-7
          2020.76     1.256931E-7
         2022.563     1.199880E-7
         2024.368     1.142211E-7
         2026.173     1.084001E-7
         2027.982     1.025167E-7
         2029.791     9.657835E-8
         2031.602     1.057945E-7
         2033.414     1.170866E-7
         2035.228     1.284812E-7
         2037.044     1.399858E-7
         2038.861     1.515869E-7
         2040.681     1.625415E-7
         2042.502     1.723209E-7
         2044.324     1.821807E-7
         2046.147     1.921258E-7
         2047.974     2.021639E-7
           2049.8     2.122827E-7
          2051.63     2.123071E-7
         2053.461     2.110712E-7
         2055.291     2.098195E-7
         2057.125     2.085493E-7
         2058.961     2.072619E-7
         2060.798     2.009826E-7
         2062.637     1.881243E-7
         2064.477     1.751542E-7
         2066.318     1.620649E-7
         2068.164     1.488384E-7
         2070.007     1.355200E-7
         2071.855     1.235003E-7
         2073.704     1.113733E-7
         2075.553     9.914491E-8
         2077.405     8.680836E-8
         2079.259     7.435170E-8
         2081.113     6.859216E-8
         2082.971     6.732783E-8
         2084.829     6.605190E-8
         2086.688     6.476363E-8
          2088.55     6.346199E-8
         2090.414     6.206481E-8
         2092.279     6.036386E-8
         2094.145     5.864783E-8
         2096.014     5.691484E-8
         2097.885     5.516641E-8
         2099.756     5.340338E-8
          2101.63     6.324212E-8
         2103.503     7.489364E-8
         2105.381     8.664994E-8
          2107.26     9.850089E-8
         2109.139     1.104375E-7
         2111.022     1.186275E-7
         2112.906     1.236256E-7
         2114.789     1.286537E-7
         2116.677     1.337251E-7
         2118.564     1.388301E-7
         2120.455     1.399626E-7
         2122.348     1.283966E-7
         2124.241     1.167509E-7
         2126.135     1.050146E-7
         2128.033     9.318265E-8
         2129.932     8.125935E-8
         2131.832     7.197060E-8
         2133.734     6.271362E-8
         2135.637     5.339069E-8
         2137.544     4.398828E-8
          2139.45     3.453833E-8
         2141.359     3.244881E-8
          2143.27     3.336164E-8
         2145.182     3.428021E-8
         2147.096     3.520550E-8
         2149.011     3.613644E-8
         2150.929     4.061707E-8
         2152.848     4.890805E-8
         2154.768     5.725629E-8
         2156.692     6.567278E-8
         2158.615     7.413099E-8
         2160.541     7.845642E-8
         2162.469     7.201345E-8
         2164.397     6.553544E-8
          2166.33     5.900165E-8
         2168.263     5.242752E-8
         2170.196     4.607755E-8
         2172.133     4.198139E-8
          2174.07     3.786291E-8
         2176.011     3.371578E-8
         2177.953     2.954300E-8
         2179.895     2.534765E-8
          2181.84     2.302934E-8
         2183.787     2.080506E-8
         2185.735     1.856921E-8
         2187.686     1.631951E-8
         2189.637     1.405844E-8
          2191.59     1.339044E-8
         2193.546     1.308677E-8
         2195.503     1.278150E-8
         2197.462     1.247473E-8
         2199.423     1.216609E-8
         2201.385     1.690293E-8
         2203.348     2.383643E-8
         2205.315     3.088521E-8
         2207.283     3.804469E-8
         2209.252     4.531085E-8
         2211.222     5.783562E-8
         2213.196     7.374013E-8
          2215.17     8.987330E-8
         2217.147     1.062602E-7
         2219.125     1.228902E-7
         2221.104     1.319875E-7
         2223.086     1.350200E-7
         2225.071     1.380879E-7
         2227.055     1.411838E-7
         2229.042     1.443172E-7
         2231.031     1.431223E-7
         2233.021     1.378151E-7
         2235.015     1.324141E-7
         2237.008     1.269321E-7
         2239.003     1.213616E-7
         2241.002     1.148726E-7
         2242.999     1.074655E-7
         2245.002     9.993475E-8
         2247.005     9.230186E-8
         2249.009     8.455708E-8
         2251.016     7.616432E-8
         2253.024     6.713567E-8
         2255.033     5.798334E-8
         2257.046     4.870005E-8
         2259.061     3.929187E-8
         2261.075     3.365227E-8
         2263.092     3.135760E-8
         2265.112     2.903016E-8
         2267.134     2.667117E-8
         2269.156     2.428225E-8
         2271.181     2.604640E-8
         2273.207     3.083974E-8
         2275.234     3.569038E-8
         2277.266     4.060450E-8
         2279.296     4.556633E-8
          2281.33     4.894129E-8
         2283.366     5.147384E-8
         2285.402     5.403073E-8
         2287.441     5.661821E-8
         2289.483     5.923301E-8
         2291.525     5.400187E-8
          2293.57     4.601649E-8
         2295.615     3.794705E-8
         2297.663     2.978135E-8
         2299.715     2.151202E-8
         2301.765     1.804646E-8
          2303.82     1.532823E-8
         2305.876     1.257700E-8
         2307.932     9.794287E-9
         2309.992     6.976311E-9
         2312.051     6.983827E-9
         2314.116     7.002057E-9
          2316.18     7.020128E-9
         2318.246     7.038060E-9
         2320.315     7.058741E-9
         2322.385     7.095426E-9
         2324.457     7.132211E-9
         2326.531     7.169050E-9
         2328.606     7.205971E-9
         2330.685     7.242841E-9
         2332.764     7.279385E-9
         2334.845     7.316009E-9
         2336.927     7.352706E-9
         2339.012     7.389481E-9
         2341.101     7.515281E-9
         2343.188     7.722122E-9
         2345.279     7.930887E-9
         2347.372     8.141678E-9
         2349.467     8.354360E-9
         2351.562     1.051177E-8
         2353.661     1.336029E-8
         2355.759     1.623405E-8
         2357.862     1.914084E-8
         2359.966     2.207677E-8
         2362.071     2.535125E-8
         2364.179     2.866518E-8
         2366.288     3.200936E-8
         2368.398     3.538620E-8
         2370.512     3.960264E-8
         2372.628     4.639124E-8
         2374.744     5.324055E-8
         2376.863     6.015942E-8
         2378.983     6.714020E-8
         2381.105     7.787134E-8
          2383.23     9.212053E-8
         2385.357     1.065017E-7
         2387.485     1.210086E-7
         2389.615     1.356483E-7
         2391.747     1.384795E-7
         2393.881     1.386822E-7
         2396.017     1.388825E-7
         2398.154     1.390803E-7
         2400.293     1.386167E-7
         2402.435     1.339741E-7
          2404.58     1.292852E-7
         2406.724     1.245535E-7
         2408.872     1.197730E-7
         2411.022     1.148529E-7
         2413.171     1.097890E-7
         2415.326     1.046684E-7
         2417.479     9.951022E-8
         2419.637     9.429723E-8
         2421.796     8.421631E-8
         2423.957     7.307465E-8
          2426.12     6.183002E-8
         2428.284     5.049598E-8
         2430.451     4.090883E-8
         2432.619     3.832295E-8
         2434.789     3.571496E-8
         2436.962     3.308272E-8
         2439.136     3.042822E-8
         2441.312     2.918725E-8
          2443.49     2.888400E-8
          2445.67     2.857746E-8
         2447.853     2.826772E-8
         2450.036     2.790374E-8
         2452.222     2.449225E-8
         2454.409     2.105310E-8
           2456.6     1.758386E-8
         2458.792     1.408712E-8
         2460.985     1.189147E-8
          2463.18     1.131275E-8
         2465.379     1.072889E-8
         2467.579     1.014032E-8
         2469.778     9.547676E-9
         2471.983     9.516697E-9
          2474.19     9.548995E-9
         2476.396     9.581289E-9
         2478.606     9.613670E-9
         2480.817     9.646021E-9
         2483.029     9.678314E-9
         2485.247     9.710703E-9
         2487.462     9.743079E-9
         2489.682     9.775548E-9
         2491.904     1.120978E-8
         2494.125     1.288736E-8
         2496.353     1.458047E-8
         2498.579     1.628398E-8
         2500.808     1.971514E-8
          2503.04     2.620279E-8
         2505.272     3.273418E-8
         2507.509     3.931876E-8
         2509.745     4.594663E-8
         2511.985     4.908053E-8
         2514.225     5.177724E-8
         2516.468     5.449336E-8
         2518.714     5.723015E-8
         2520.962     5.803111E-8
          2523.21     5.621276E-8
         2525.462     5.437864E-8
         2527.715     5.253110E-8
         2529.971     5.066766E-8
         2532.229     4.519113E-8
         2534.486     3.963208E-8
         2536.748     3.402434E-8
          2539.01     2.833245E-8
         2541.277     2.475577E-8
         2543.545     2.283422E-8
         2545.813     2.090617E-8
         2548.084     1.897063E-8
         2550.358     1.715775E-8
         2552.635     1.604073E-8
         2554.911     1.492015E-8
         2557.191     1.379436E-8
         2559.471     1.266553E-8
         2561.755     1.210553E-8
         2564.042     1.171681E-8
         2566.329     1.132670E-8
         2568.619     1.093480E-8
         2570.908     1.070403E-8
         2573.205     1.071954E-8
           2575.5     1.073495E-8
         2577.797     1.075029E-8
         2580.097     1.076558E-8
         2582.399     1.078130E-8
         2584.704     1.079696E-8
          2587.01     1.081253E-8
         2589.318     1.082803E-8
         2591.629     1.084382E-8
          2593.94     1.085969E-8
         2596.254     1.087547E-8
         2598.573     1.089119E-8
         2600.889     1.101803E-8
          2603.21     1.132461E-8
         2605.532     1.163202E-8
         2607.856     1.194047E-8
         2610.185     1.224569E-8
         2612.512     1.249773E-8
         2614.843     1.275086E-8
         2617.177     1.300481E-8
          2619.51     1.325926E-8
         2621.849     1.800650E-8
         2624.188     2.395857E-8
         2626.528     2.993313E-8
         2628.873     3.593445E-8
         2631.217     4.748731E-8
         2633.566     6.423310E-8
         2635.916     8.104266E-8
         2638.267     9.790691E-8
          2640.62     1.120169E-7
         2642.977     1.182904E-7
         2645.334     1.245832E-7
         2647.695     1.309022E-7
         2650.057     1.367370E-7
         2652.422     1.221410E-7
         2654.788     1.074959E-7
         2657.157     9.278242E-8
         2659.526     7.802814E-8
         2661.899     6.552980E-8
         2664.275     5.356451E-8
         2666.652     4.155871E-8
         2669.031     2.949909E-8
         2671.412     2.625850E-8
         2673.796     2.909739E-8
         2676.181     3.194496E-8
          2678.57     3.480489E-8
          2680.96     3.812551E-8
          2683.35     4.212584E-8
         2685.746     4.614815E-8
          2688.14     5.017802E-8
          2690.54     5.200345E-8
         2692.941     4.615143E-8
         2695.343     4.027913E-8
         2697.748     3.438072E-8
         2700.153     2.907302E-8
         2702.563     3.269776E-8
         2704.975     3.634688E-8
         2707.387     4.001855E-8
         2709.804     4.371766E-8
         2712.222     4.991606E-8
         2714.642     5.637198E-8
         2717.063     6.287109E-8
         2719.486     6.941482E-8
         2721.915     7.942860E-8
         2724.343     9.041807E-8
         2726.772     1.014821E-7
         2729.205     1.126209E-7
          2731.64     1.211110E-7
         2734.078     1.283283E-7
         2736.517     1.355889E-7
         2738.958     1.428963E-7
         2741.402     1.409955E-7
         2743.849     1.321694E-7
         2746.296     1.232864E-7
         2748.747     1.143349E-7
         2751.198     1.049065E-7
         2753.653     9.499180E-8
         2756.111     8.505547E-8
         2758.569     7.510341E-8
         2761.031     7.327089E-8
         2763.495     8.276118E-8
         2765.958     9.226049E-8
         2768.427     1.017914E-7
         2770.898     1.143438E-7
         2773.369     1.321739E-7
         2775.844     1.500525E-7
          2778.32     1.679586E-7
         2780.799     1.822666E-7
          2783.28     1.889448E-7
         2785.764     1.956375E-7
         2788.249     2.023395E-7
         2790.736     2.000281E-7
         2793.227     1.761913E-7
          2795.72     1.523055E-7
         2798.213     1.283848E-7
         2800.709     1.054035E-7
         2803.209     8.485716E-8
         2805.709     6.428149E-8
         2808.213     4.365036E-8
         2810.718     2.838438E-8
         2813.226     2.653046E-8
         2815.736     2.467397E-8
         2818.247     2.281381E-8
         2820.764     2.570312E-8
         2823.278     3.949983E-8
         2825.798     5.334035E-8
          2828.32     6.720731E-8
         2830.843     8.167837E-8
         2833.369     9.735493E-8
         2835.898     1.130625E-7
         2838.426     1.287798E-7
         2840.959     1.339601E-7
         2843.495     1.217519E-7
         2846.031     1.095284E-7
         2848.571     9.727312E-8
         2851.112     8.834042E-8
         2853.655     8.368423E-8
         2856.202     7.901688E-8
         2858.751     7.434115E-8
         2861.301     7.083053E-8
         2863.853     6.843987E-8
         2866.407     6.604476E-8
         2868.965     6.364377E-8
         2871.526     6.106018E-8
         2874.087     5.835281E-8
         2876.652     5.563871E-8
         2879.218     5.292175E-8
         2881.788     5.331472E-8
         2884.358     5.507269E-8
         2886.931     5.683382E-8
         2889.507     5.859889E-8
         2892.084     6.809923E-8
         2894.666     7.945266E-8
         2897.248     9.081941E-8
         2899.832     1.022038E-7
         2902.421     8.837354E-8
          2905.01     7.283533E-8
         2907.601     5.732505E-8
         2910.198     4.248769E-8
          2912.79     3.574240E-8
         2915.392     2.899320E-8
         2917.992     2.226557E-8
         2920.594     1.886232E-8
         2923.203     2.665323E-8
         2925.807     3.440978E-8
          2928.42     4.216896E-8
         2931.033     5.248805E-8
         2933.646     6.671370E-8
         2936.266     8.093507E-8
         2938.885     9.510821E-8
         2941.506     9.457310E-8
         2944.131     8.316933E-8
         2946.757     7.179624E-8
         2949.387     6.044021E-8
         2952.018     6.110322E-8
         2954.653     6.540459E-8
          2957.29     6.969617E-8
         2959.926     7.397274E-8
         2962.567     9.032753E-8
          2965.21     1.069854E-7
         2967.856     1.236133E-7
         2970.505     1.366748E-7
         2973.155     1.347361E-7
         2975.808     1.327996E-7
         2978.461     1.308692E-7
         2981.121     1.261365E-7
          2983.78     1.175783E-7
         2986.441     1.090395E-7
         2989.104     1.005208E-7
         2991.772     9.042378E-8
         2994.442     7.954863E-8
         2997.113     6.870503E-8
         2999.788     5.788022E-8
         3002.464     5.589868E-8
         3005.142     5.467784E-8
         3007.826     5.345804E-8
         3010.507     5.578615E-8
         3013.194     7.331576E-8
         3015.883     9.080075E-8
         3018.573     1.082297E-7
         3021.267     1.261041E-7
          3023.96     1.444479E-7
          3026.66     1.627765E-7
          3029.36     1.810346E-7
         3032.062     1.836662E-7
          3034.77     1.814574E-7
         3037.475     1.792568E-7
         3040.186     1.770106E-7
         3042.897     1.741262E-7
         3045.612     1.712479E-7
         3048.332     1.683723E-7
         3051.051     1.560982E-7
         3053.772     1.289302E-7
         3056.497     1.018169E-7
         3059.222     7.481453E-8
         3061.954     5.687745E-8
         3064.685     4.260851E-8
         3067.418     2.837822E-8
         3070.156     1.500210E-8
         3072.896     1.524599E-8
         3075.637     1.548891E-8
          3078.38     1.573098E-8
         3081.126     1.899628E-8
         3083.877     2.660668E-8
         3086.628     3.418565E-8
         3089.381     4.174120E-8
         3092.137     4.223986E-8
         3094.895     4.070120E-8
         3097.659     3.916488E-8
         3100.422     3.695538E-8
         3103.187     3.096070E-8
         3105.955     2.494356E-8
         3108.729     1.889643E-8
         3111.501     1.650095E-8
