#  Table wf2f450wsys.tab  Mon 12:21:43 02-Jun-97
#
#      WAVELENGTH      THROUGHPUT
#       angstroms                
#
            1860.     4.747628E-8
         1861.655     4.242223E-8
         1863.309     3.732382E-8
         1864.968     3.216644E-8
         1866.627     2.696156E-8
         1868.287     2.170977E-8
         1869.948     1.640740E-8
         1871.612     3.340134E-8
         1873.277     5.127887E-8
         1874.943     6.931478E-8
         1876.611     8.753364E-8
          1878.28     1.059137E-7
         1879.951     1.244310E-7
         1881.624     1.566522E-7
         1883.297     1.895287E-7
         1884.973     2.226950E-7
         1886.648     2.560890E-7
         1888.326     2.897964E-7
         1890.007     3.236929E-7
         1891.687     3.349503E-7
          1893.37     3.463068E-7
         1895.055     3.577488E-7
          1896.74     3.692700E-7
         1898.427     3.808846E-7
         1900.116     3.893421E-7
         1901.806     3.538806E-7
         1903.497     3.181125E-7
         1905.191     2.820136E-7
         1906.885     2.456270E-7
         1908.581     2.089073E-7
          1910.28     1.738705E-7
         1911.978     1.487131E-7
         1913.679     1.233239E-7
         1915.381     9.773342E-8
         1917.085     7.190977E-8
         1918.791     4.586879E-8
         1920.498     2.686719E-8
         1922.205     2.540819E-8
         1923.915     2.393427E-8
         1925.628     2.244641E-8
         1927.339     2.094829E-8
         1929.054     1.943519E-8
         1930.769     2.650672E-8
         1932.487     4.427233E-8
         1934.207     6.218721E-8
         1935.926     8.023899E-8
         1937.649     9.845110E-8
         1939.372     1.168033E-7
         1941.096     1.645470E-7
         1942.824     2.296017E-7
         1944.552     2.951160E-7
         1946.281     3.611692E-7
         1948.013     4.278097E-7
         1949.746     4.949974E-7
          1951.48     4.935345E-7
         1953.216     4.801087E-7
         1954.954     4.665569E-7
         1956.691     4.528966E-7
         1958.432     4.390924E-7
         1960.176     4.260249E-7
         1961.917     4.206757E-7
         1963.663     4.152634E-7
          1965.41     4.097946E-7
         1967.158     4.042731E-7
         1968.907     3.986944E-7
          1970.66     3.917197E-7
         1972.412     3.824699E-7
         1974.167     3.731265E-7
         1975.922     3.637077E-7
          1977.68     3.541889E-7
          1979.44     3.445756E-7
           1981.2     3.423646E-7
         1982.962     3.436290E-7
         1984.726     3.448956E-7
         1986.491     3.461628E-7
         1988.259     3.474320E-7
         1990.028     3.488200E-7
         1991.797     3.576071E-7
         1993.568     3.664567E-7
         1995.342     3.753756E-7
         1997.117     3.843581E-7
         1998.893     3.933978E-7
         2000.672     3.881072E-7
         2002.451     3.589185E-7
         2004.232     3.294169E-7
         2006.016     2.996231E-7
         2007.799     2.695522E-7
         2009.586     2.391636E-7
         2011.373     2.191549E-7
         2013.161     2.021801E-7
         2014.953     1.850142E-7
         2016.745     1.677008E-7
         2018.538     1.502160E-7
         2020.334     1.370959E-7
         2022.132     1.438202E-7
          2023.93     1.505999E-7
         2025.731     1.574435E-7
         2027.532     1.643427E-7
         2029.335     1.713022E-7
         2031.141     1.716973E-7
         2032.949     1.682033E-7
         2034.756     1.646763E-7
         2036.566     1.611113E-7
         2038.378     1.575061E-7
          2040.19     1.520575E-7
         2042.006     1.310538E-7
         2043.821     1.098667E-7
          2045.64     8.846658E-8
          2047.46     6.686682E-8
         2049.279     4.509294E-8
         2051.104     3.382183E-8
         2052.929     2.950052E-8
         2054.753     2.514413E-8
         2056.581     2.074256E-8
         2058.411     1.630029E-8
         2060.241     1.361933E-8
         2062.074     2.281668E-8
         2063.909     3.209591E-8
         2065.744     4.145113E-8
         2067.581     5.088890E-8
         2069.422     6.042095E-8
         2071.262     8.607608E-8
         2073.104     1.193395E-7
         2074.948     1.529096E-7
         2076.793     1.867475E-7
         2078.642     2.209175E-7
         2080.491     2.496064E-7
         2082.341     2.625988E-7
         2084.193     2.757047E-7
         2086.047     2.889074E-7
         2087.902     3.022160E-7
          2089.76     3.156468E-7
         2091.619     3.033726E-7
         2093.479     2.871555E-7
         2095.341     2.707886E-7
         2097.204     2.542886E-7
          2099.07     2.376374E-7
         2100.938     2.221020E-7
         2102.806     2.076946E-7
         2104.677     1.931572E-7
         2106.548     1.785102E-7
         2108.423     1.637320E-7
         2110.299     1.512932E-7
         2112.175     1.518124E-7
         2114.053     1.523327E-7
         2115.934     1.528545E-7
         2117.817     1.533774E-7
           2119.7     1.539010E-7
         2121.586     1.610871E-7
         2123.474     1.695895E-7
         2125.361     1.781412E-7
         2127.252     1.867648E-7
         2129.144     1.954480E-7
         2131.038     1.982511E-7
         2132.934     1.961547E-7
          2134.83     1.940413E-7
          2136.73     1.919086E-7
         2138.631     1.897771E-7
         2140.534     1.884302E-7
         2142.437     1.890390E-7
         2144.342     1.896494E-7
         2146.249     1.902612E-7
          2148.16     1.908753E-7
         2150.071     1.910719E-7
         2151.981     1.803600E-7
         2153.896     1.695570E-7
         2155.813     1.586762E-7
         2157.729     1.477258E-7
         2159.649     1.366887E-7
         2161.571     1.302659E-7
         2163.493     1.248528E-7
         2165.417     1.194027E-7
         2167.344     1.139092E-7
         2169.272     1.083845E-7
         2171.201     1.028080E-7
         2173.133     9.718367E-8
         2175.065     9.152836E-8
            2177.     8.583336E-8
         2178.936     8.010649E-8
         2180.875     7.433264E-8
         2182.815     6.851555E-8
         2184.755     6.267260E-8
           2186.7     5.678523E-8
         2188.645     5.086807E-8
         2190.592     4.768296E-8
         2192.539     5.082564E-8
          2194.49     5.398597E-8
         2196.441     5.716046E-8
         2198.396     6.035273E-8
         2200.352     6.362435E-8
         2202.309     6.722181E-8
         2204.267     7.086701E-8
         2206.229     7.457026E-8
         2208.191     7.832077E-8
         2210.156     8.161608E-8
         2212.121     7.897316E-8
         2214.088     7.628125E-8
         2216.059     7.353704E-8
         2218.029     7.074706E-8
         2220.002     6.790445E-8
         2221.977     6.162777E-8
         2223.953     5.525509E-8
         2225.931     4.877885E-8
         2227.912     4.220249E-8
         2229.894     3.552559E-8
         2231.876     3.207034E-8
         2233.862     2.874757E-8
         2235.849     2.537509E-8
         2237.837     2.195478E-8
         2239.828     1.848180E-8
          2241.82     2.827085E-8
         2243.814     3.946504E-8
         2245.811     5.081115E-8
         2247.809     6.230704E-8
         2249.808     7.394902E-8
         2251.808     8.231899E-8
         2253.812     9.043347E-8
         2255.817     9.864753E-8
         2257.823     1.069585E-7
         2259.831     1.153717E-7
         2261.841     1.095495E-7
         2263.854     1.023189E-7
         2265.865     9.499954E-8
         2267.883     8.756770E-8
         2269.901     8.004172E-8
         2271.918     7.241738E-8
         2273.939     6.468502E-8
         2275.962     5.685484E-8
         2277.988     4.892551E-8
         2280.013     4.092943E-8
         2282.042     3.697670E-8
         2284.071     3.297767E-8
         2286.103     2.892684E-8
         2288.136     2.482892E-8
         2290.172     2.104074E-8
         2292.209     2.115210E-8
         2294.248     2.126358E-8
         2296.288     2.137629E-8
         2298.331     2.149570E-8
         2300.376     2.161514E-8
         2302.421     2.173373E-8
          2304.47     2.185268E-8
         2306.519     2.197181E-8
          2308.57     2.209122E-8
         2310.625     2.221055E-8
         2312.681     2.232895E-8
         2314.736     2.244746E-8
         2316.796     2.256638E-8
         2318.857     2.268555E-8
         2320.919     2.489980E-8
         2322.983     2.975920E-8
         2325.049     3.467454E-8
         2327.118     3.964436E-8
         2329.187     4.466413E-8
          2331.26     4.973959E-8
         2333.334     5.486703E-8
         2335.409     6.004483E-8
         2337.485     6.527689E-8
         2339.565     7.056646E-8
         2341.648     7.590915E-8
         2343.729     8.129556E-8
         2345.814     8.674206E-8
         2347.901     9.224319E-8
         2349.989     9.779595E-8
          2352.08     1.085093E-7
         2354.171     1.193491E-7
         2356.266     1.303049E-7
         2358.361     1.413618E-7
         2360.458     1.502289E-7
          2362.56     1.509208E-7
         2364.661     1.516132E-7
         2366.764     1.523072E-7
         2368.869     1.530021E-7
         2370.977     1.536927E-7
         2373.085     1.543770E-7
         2375.196     1.550629E-7
          2377.31     1.557501E-7
         2379.422     1.564377E-7
         2381.539     1.611488E-7
          2383.66     1.674210E-7
         2385.778     1.737352E-7
         2387.901     1.801120E-7
         2390.024     1.864751E-7
          2392.15     1.872541E-7
         2394.279     1.880344E-7
         2396.409     1.888161E-7
          2398.54     1.895987E-7
         2400.673     1.867185E-7
         2402.809     1.758061E-7
         2404.947     1.647906E-7
         2407.086     1.536727E-7
         2409.225     1.424636E-7
         2411.369     1.349287E-7
         2413.514     1.294795E-7
         2415.662     1.239793E-7
          2417.81     1.184315E-7
         2419.961     1.128291E-7
         2422.113     9.521712E-8
         2424.267     7.723089E-8
         2426.425     5.906949E-8
         2428.584     4.076307E-8
         2430.742     2.658436E-8
         2432.905     2.044949E-8
         2435.069     1.426265E-8
         2437.235     8.028565E-9
         2439.403     1.739354E-9
         2441.572              0.
         2443.745              0.
         2445.917              0.
         2448.094              0.
         2450.272              0.
         2452.451              0.
         2454.631              0.
         2456.815              0.
            2459.              0.
         2461.188     3.585389E-9
         2463.378     1.023114E-8
         2465.569     1.692767E-8
          2467.76     2.366834E-8
         2469.958     3.047290E-8
         2472.154     3.732010E-8
         2474.353     4.422289E-8
         2476.553     5.117377E-8
         2478.756     5.817678E-8
         2480.961     6.822611E-8
         2483.167     8.223116E-8
         2485.378     9.635940E-8
         2487.588     1.105737E-7
         2489.801     1.249010E-7
         2492.015     1.265744E-7
         2494.231     1.269933E-7
         2496.451     1.274134E-7
          2498.67     1.278334E-7
         2500.893     1.282546E-7
         2503.118     1.286763E-7
         2505.345     1.290988E-7
         2507.573     1.295217E-7
         2509.803     1.299452E-7
         2512.036     1.370074E-7
          2514.27     1.447603E-7
         2516.507     1.525733E-7
         2518.746     1.604414E-7
         2520.985     1.683613E-7
         2523.228     1.763418E-7
         2525.472     1.843738E-7
         2527.719     1.924671E-7
         2529.967     2.006113E-7
         2532.218     1.939367E-7
         2534.471     1.869843E-7
         2536.723     1.799851E-7
          2538.98     1.726483E-7
          2541.24     1.652388E-7
           2543.5     1.578103E-7
         2545.762     1.503511E-7
         2548.027     1.428574E-7
         2550.292     1.363363E-7
         2552.562     1.365339E-7
         2554.833     1.367306E-7
         2557.106     1.369264E-7
          2559.38     1.371211E-7
         2561.655     1.316355E-7
         2563.935     1.239886E-7
         2566.216     1.163117E-7
         2568.498     1.086098E-7
         2570.781     1.035771E-7
         2573.069     1.037266E-7
         2575.358     1.038754E-7
         2577.648     1.040234E-7
         2579.942     1.041708E-7
         2582.236     1.043224E-7
         2584.533     1.044735E-7
         2586.833     1.046238E-7
         2589.135     1.047735E-7
         2591.435     1.049253E-7
         2593.741     1.050785E-7
         2596.049     1.052309E-7
         2598.357     1.053825E-7
         2600.669     1.055350E-7
         2602.981     1.056907E-7
         2605.297     1.058457E-7
         2607.614     1.059998E-7
         2609.936     1.061533E-7
         2612.256     9.831607E-8
         2614.579     9.021878E-8
         2616.906     8.208347E-8
         2619.232     7.392141E-8
         2621.564     7.129555E-8
         2623.894     7.140227E-8
         2626.229     7.150860E-8
         2628.565     7.161439E-8
         2630.904     7.172114E-8
         2633.243     7.182966E-8
         2635.585     7.193764E-8
          2637.93     7.204514E-8
         2640.275     7.314581E-8
         2642.625     8.174389E-8
         2644.976     9.037485E-8
         2647.328     9.903218E-8
         2649.683     1.077274E-7
         2652.039     1.090422E-7
         2654.399     1.092069E-7
         2656.759     1.093705E-7
         2659.123     1.095333E-7
         2661.489     1.042542E-7
         2663.854     9.574953E-8
         2666.224     8.720030E-8
         2668.598     7.861106E-8
         2670.971     6.999961E-8
         2673.346     6.135466E-8
         2675.724     5.266971E-8
         2678.104     4.395654E-8
         2680.486     3.700357E-8
          2682.87     3.705882E-8
         2685.258     3.711382E-8
         2687.645     3.716841E-8
         2690.036     3.735635E-8
         2692.429     4.633312E-8
         2694.823     5.533930E-8
         2697.221     6.438388E-8
         2699.619     7.345560E-8
         2702.021     8.267801E-8
         2704.424     9.197528E-8
         2706.829     1.013357E-7
         2709.239     1.107697E-7
         2711.648     1.077358E-7
         2714.059     9.887048E-8
         2716.474     8.993640E-8
         2718.891     8.093877E-8
         2721.308     7.691540E-8
         2723.729     7.714672E-8
         2726.153     7.737822E-8
         2728.577     7.760980E-8
         2731.003     7.784187E-8
         2733.433     7.807467E-8
         2735.865     7.830768E-8
         2738.298     7.854072E-8
         2740.733     8.166008E-8
         2743.171     9.153744E-8
         2745.612     1.014800E-7
         2748.055     1.114889E-7
         2750.499     1.215009E-7
         2752.946     1.313331E-7
         2755.394     1.411816E-7
         2757.845     1.510574E-7
         2760.299     1.597597E-7
         2762.752     1.598596E-7
          2765.21     1.599597E-7
          2767.67     1.600599E-7
         2770.131     1.601601E-7
         2772.596     1.602594E-7
         2775.063     1.603588E-7
         2777.531     1.604582E-7
            2780.     1.605568E-7
         2782.475     1.507135E-7
         2784.949     1.408603E-7
         2787.427     1.309814E-7
         2789.906     1.210877E-7
         2792.386     1.111708E-7
         2794.873     1.012207E-7
         2797.356     9.126879E-8
         2799.845     8.128367E-8
         2802.336     7.127692E-8
          2804.83     6.125089E-8
         2807.324     5.120959E-8
         2809.822     4.114216E-8
          2812.32     4.044269E-8
         2814.821     4.046454E-8
         2817.325     4.048641E-8
         2819.833     4.050832E-8
         2822.339     3.104907E-8
          2824.85     2.088203E-8
         2827.362     1.070148E-8
         2829.878    4.965031E-10
         2832.396     9.729836E-9
         2834.914     1.996847E-8
         2837.437     3.023235E-8
         2839.959     4.050955E-8
         2842.485     6.091751E-8
         2845.015     8.155169E-8
         2847.545     1.021996E-7
         2850.077     1.219418E-7
         2852.613     1.116596E-7
         2855.151     1.013588E-7
          2857.69     9.104537E-8
         2860.233     8.070625E-8
         2862.777     7.034841E-8
         2865.323     5.997725E-8
         2867.871     4.958778E-8
         2870.423     4.262990E-8
         2872.976     5.309752E-8
         2875.531     6.357804E-8
         2878.088     7.407650E-8
         2880.649     8.725747E-8
         2883.212     1.083045E-7
         2885.775     1.293752E-7
         2888.343     1.504955E-7
         2890.913     1.679041E-7
         2893.483     1.785245E-7
         2896.058     1.891694E-7
         2898.633     1.998258E-7
          2901.21     2.003820E-7
         2903.792     1.895185E-7
         2906.375     1.786756E-7
         2908.961     1.678515E-7
         2911.546     1.633746E-7
         2914.137     1.631435E-7
          2916.73     1.629120E-7
         2919.323     1.626801E-7
         2921.922     1.702531E-7
         2924.519     1.805377E-7
         2927.121     1.908126E-7
         2929.725     2.010652E-7
         2932.332     2.018774E-7
         2934.941     2.015779E-7
         2937.549     2.012782E-7
         2940.163     2.009775E-7
         2942.779     2.006765E-7
         2945.397     2.003748E-7
         2948.016     2.000727E-7
         2950.637     1.946750E-7
         2953.263     1.734274E-7
         2955.889     1.522404E-7
         2958.519     1.310865E-7
         2961.153     1.191195E-7
         2963.784     1.189336E-7
         2966.421     1.187472E-7
         2969.061     1.185604E-7
         2971.701     1.250828E-7
         2974.343     1.352926E-7
          2976.99     1.454849E-7
         2979.638     1.556519E-7
         2982.286     1.388927E-7
         2984.939     1.178958E-7
         2987.597     9.693382E-8
         2990.253     7.703614E-8
         2992.914     6.654642E-8
         2995.575     5.608794E-8
         2998.239     4.565508E-8
         3000.907     3.875427E-8
         3003.575     3.868914E-8
         3006.249     3.862380E-8
         3008.921     3.855845E-8
         3011.598     4.464275E-8
         3014.277     5.486391E-8
         3016.958     6.505160E-8
         3019.642     7.521962E-8
         3022.327     6.756304E-8
         3025.016     5.718369E-8
         3027.706     4.683627E-8
         3030.398     3.802952E-8
         3033.096     3.796231E-8
         3035.793     3.789505E-8
         3038.494     3.782761E-8
         3041.198     3.776006E-8
           3043.9     3.769245E-8
         3046.608     3.762464E-8
         3049.319     3.755669E-8
         3052.032     4.510690E-8
         3054.748     5.518526E-8
         3057.462     6.522361E-8
         3060.183     7.524618E-8
         3062.905     8.523923E-8
         3065.629     9.519818E-8
         3068.356     1.051336E-7
         3071.085     1.070054E-7
         3073.817     9.671121E-8
         3076.551     8.645293E-8
         3079.288     7.621693E-8
         3082.028     7.345638E-8
         3084.768     7.331614E-8
         3087.513     7.317551E-8
         3090.258     7.209238E-8
         3093.006     6.193741E-8
         3095.758     5.180676E-8
         3098.512     4.170598E-8
         3101.269     3.629077E-8
         3104.025     3.634218E-8
         3106.787     3.639373E-8
         3109.551     3.644536E-8
         3112.316     3.649705E-8
         3115.087     3.654888E-8
         3117.855     3.660069E-8
         3120.631     3.665269E-8
         3123.406     3.670472E-8
