# This standard spectrum was made by Joe Hennawi by combining the
# http://www.ing.iac.es/Astronomy/observing/manuals/html_manuals/tech_notes/tn065-100/w1346a.oke spectrum which extends to 10640
# with the higher resolution spectrum on NAOJ website
# http://www.naoj.org/Observing/Instruments/FOCAS/Detail/UsersGuide/Observing/StandardStar/Spec/PLOTDATA/data/wolf1346.dat
# both of these files were in AB magnitudes. 
#      LAM            FLAM (1d-16)
      3125.97       2623.3174
      3128.05       2668.5308
      3130.14       2630.8389
      3132.22       2586.5242
      3134.30       2597.4040
      3136.38       2644.6160
      3138.47       2720.1069
      3140.55       2746.6916
      3142.63       2707.9100
      3144.71       2714.3059
      3146.79       2828.0300
      3148.88       2887.4172
      3150.96       2872.9964
      3153.04       2895.7519
      3155.12       2921.3809
      3157.21       2922.9076
      3159.29       2929.8296
      3161.37       3005.1774
      3163.45       3131.1077
      3165.53       3199.8290
      3167.62       3186.8048
      3169.70       3078.8217
      3171.78       2941.8082
      3173.86       2894.9700
      3175.95       2864.6706
      3178.03       2819.0647
      3180.11       2820.5651
      3182.19       2853.4347
      3184.27       2908.0341
      3186.36       2985.6019
      3188.44       3110.7446
      3190.52       3141.2125
      3192.60       3137.1164
      3194.69       3115.7608
      3196.77       3077.5031
      3198.85       3036.9153
      3200.93       3052.5828
      3203.02       3088.1798
      3205.10       3078.4930
      3207.18       2982.4561
      3209.26       2929.6142
      3211.34       2931.2105
      3213.43       2995.5999
      3215.51       2972.4954
      3217.59       2874.4777
      3219.67       2813.1759
      3221.76       2838.1515
      3223.84       2948.9954
      3225.92       2961.5118
      3228.00       2925.1824
      3230.08       2910.6698
      3232.17       3094.8038
      3234.25       3056.8469
      3236.33       2999.9544
      3238.41       2974.1016
      3240.50       3019.9358
      3242.58       3004.9657
      3244.66       2938.2045
      3246.74       2888.8480
      3248.83       2930.6764
      3250.91       2862.9336
      3252.99       2809.6685
      3255.07       2785.4767
      3257.15       2792.1833
      3259.24       2732.6794
      3261.32       2714.1518
      3263.40       2756.0025
      3265.48       2837.4326
      3267.57       2818.2014
      3269.65       2793.9495
      3271.73       2787.8268
      3273.81       2784.2820
      3275.90       2719.9492
      3277.98       2652.2158
      3280.06       2668.4403
      3282.14       2742.2431
      3284.22       2807.7288
      3286.31       2858.9369
      3288.39       2871.1396
      3290.47       2859.5965
      3292.55       2842.8583
      3294.64       2862.8989
      3296.72       2843.5273
      3298.80       2834.7099
      3300.88       2865.2379
      3302.96       2906.7857
      3305.05       2919.2108
      3307.13       2899.4695
      3309.21       2861.3542
      3311.29       2821.1443
      3313.38       2888.5469
      3315.46       2916.9821
      3317.54       2875.9970
      3319.62       2778.7108
      3321.70       2714.5548
      3323.79       2746.3397
      3325.87       2835.3743
      3327.95       2916.5310
      3330.03       2789.4804
      3332.12       2710.0698
      3334.20       2701.7047
      3336.28       2768.8255
      3338.36       2717.4001
      3340.45       2691.6096
      3342.53       2695.6935
      3344.61       2729.7931
      3346.69       2761.7802
      3348.77       2835.6247
      3350.86       2935.6820
      3352.94       3003.0975
      3355.02       2888.2184
      3357.10       2800.8593
      3359.19       2787.1018
      3361.27       2809.4046
      3363.35       2795.6092
      3365.43       2746.2434
      3367.51       2725.2214
      3369.60       2724.3611
      3371.68       2746.1748
      3373.76       2798.9300
      3375.84       2826.5465
      3377.93       2838.7057
      3380.01       2843.0551
      3382.09       2795.4403
      3384.17       2751.1588
      3386.26       2732.6324
      3388.34       2734.3069
      3390.42       2725.9233
      3392.50       2670.4249
      3394.58       2674.5306
      3396.67       2723.4218
      3398.75       2712.5796
      3400.83       2662.2595
      3402.91       2663.9052
      3405.00       2715.1107
      3407.08       2798.0578
      3409.16       2779.2384
      3411.24       2752.9321
      3413.32       2714.3477
      3415.41       2668.9208
      3417.49       2742.8771
      3419.57       2775.0913
      3421.65       2764.0660
      3423.74       2717.8174
      3425.82       2704.5308
      3427.90       2683.8865
      3429.98       2629.2792
      3432.07       2563.9502
      3434.15       2591.6893
      3436.23       2600.4977
      3438.31       2571.1657
      3440.39       2528.1573
      3442.48       2518.1339
      3444.56       2496.6257
      3446.64       2450.3522
      3448.72       2400.5124
      3450.81       2366.8988
      3452.89       2537.7895
      3454.97       2603.3471
      3457.05       2600.2118
      3459.13       2566.1729
      3461.22       2513.9861
      3463.30       2415.6863
      3465.38       2338.3993
      3467.46       2322.7192
      3469.55       2400.3554
      3471.63       2444.2992
      3473.71       2412.3113
      3475.79       2332.9901
      3477.88       2330.1974
      3479.96       2333.8500
      3482.04       2339.6626
      3484.12       2360.6621
      3486.20       2430.6077
      3488.29       2409.8857
      3490.37       2411.4489
      3492.45       2444.3307
      3494.53       2507.5086
      3496.62       2488.4276
      3498.70       2449.1080
      3500.78       2428.2365
      3502.86       2447.7929
      3504.94       2460.6988
      3507.03       2375.4302
      3509.11       2318.6058
      3511.19       2332.9843
      3513.27       2428.8287
      3515.36       2443.8917
      3517.44       2443.2495
      3519.52       2456.1436
      3521.60       2521.9701
      3523.69       2591.9497
      3525.77       2581.7449
      3527.85       2522.3214
      3529.93       2462.0000
      3532.01       2425.3571
      3534.10       2389.2633
      3536.18       2371.1138
      3538.26       2381.4470
      3540.34       2394.0318
      3542.43       2389.0178
      3544.51       2377.4353
      3546.59       2368.0937
      3548.67       2420.4097
      3550.75       2410.9004
      3552.84       2408.0753
      3554.92       2418.5851
      3557.00       2391.4015
      3559.08       2329.9380
      3561.17       2293.1710
      3563.25       2294.7144
      3565.33       2341.1061
      3567.41       2414.9821
      3569.50       2405.5089
      3571.58       2371.9222
      3573.66       2382.2888
      3575.74       2425.9867
      3577.82       2394.3219
      3579.91       2319.9422
      3581.99       2237.5483
      3584.07       2228.7819
      3586.15       2284.3519
      3588.24       2317.7090
      3590.32       2312.8894
      3592.40       2355.3269
      3594.48       2374.3677
      3596.56       2343.3930
      3598.65       2289.5089
      3600.73       2278.4507
      3602.81       2230.1691
      3604.89       2199.0540
      3606.98       2188.4371
      3609.06       2185.9128
      3611.14       2159.3935
      3613.22       2139.1000
      3615.31       2140.5758
      3617.39       2179.8696
      3619.47       2259.0771
      3621.55       2260.6398
      3623.63       2231.1664
      3625.72       2191.9625
      3627.80       2133.7055
      3629.88       2129.2951
      3631.96       2166.3967
      3634.05       2214.3180
      3636.13       2183.4459
      3638.21       2199.1007
      3640.29       2196.5856
      3642.37       2169.9584
      3644.46       2131.8426
      3646.54       2133.3345
      3648.62       2109.4208
      3650.70       2091.5464
      3652.79       2120.1771
      3654.87       2145.2462
      3656.95       2164.6249
      3659.03       2148.2670
      3661.11       2091.1931
      3663.20       2123.7340
      3665.28       2200.9315
      3667.36       2243.4341
      3669.44       2212.1793
      3671.53       2163.3524
      3673.61       2050.3819
      3675.69       2031.1529
      3677.77       2104.9931
      3679.86       2163.5110
      3681.94       2139.2811
      3684.02       2107.5439
      3686.10       2076.2809
      3688.18       2034.2074
      3690.27       2112.0553
      3692.35       2131.1557
      3694.43       2107.2964
      3696.51       2064.6015
      3698.60       2066.0795
      3700.68       2059.9573
      3702.76       2074.7681
      3704.84       2124.6188
      3706.93       2145.8186
      3709.01       2139.4656
      3711.09       2129.2071
      3713.17       2122.9059
      3715.25       2093.3595
      3717.34       2096.7996
      3719.42       2086.7508
      3721.50       2061.5050
      3723.58       2027.2090
      3725.67       2010.0791
      3727.75       1987.5933
      3729.83       1983.5480
      3731.91       2029.3548
      3733.99       2051.5084
      3736.08       2039.8064
      3738.16       2024.4407
      3740.24       2029.6523
      3742.32       2040.5075
      3744.41       2019.5513
      3746.49       1989.6281
      3748.57       1965.5734
      3750.65       1968.8245
      3752.73       1952.2020
      3754.82       1941.0793
      3756.90       1949.6720
      3758.98       1989.2079
      3761.06       2020.2234
      3763.15       1990.2998
      3765.23       1923.2596
      3767.31       1879.1334
      3769.39       1952.8899
      3771.48       1977.8722
      3773.56       1975.6899
      3775.64       1984.4467
      3777.72       2006.1377
      3779.80       1998.3981
      3781.89       1988.8579
      3783.97       1992.1654
      3786.05       1977.1861
      3788.13       1984.1294
      3790.22       1980.1264
      3792.30       1950.8133
      3794.38       1888.5964
      3796.46       1890.0032
      3798.54       1900.1429
      3800.63       2273.5803
      3802.71       2209.1962
      3804.79       2021.8972
      3806.87       1881.4106
      3808.96       1889.7695
      3811.04       1967.5879
      3813.12       1998.2947
      3815.20       1961.4866
      3817.29       1907.7053
      3819.37       1916.1868
      3821.45       1930.0312
      3823.53       1904.9842
      3825.61       1852.7566
      3827.70       1843.9359
      3829.78       1897.0260
      3831.86       1955.2459
      3833.94       1974.8271
      3836.03       1903.0826
      3838.11       1830.5695
      3840.19       1801.8356
      3842.27       1824.9224
      3844.35       1872.2919
      3846.44       1917.3590
      3848.52       1936.5708
      3850.60       1938.0432
      3852.68       1934.1677
      3854.77       1940.9953
      3856.85       1949.6454
      3858.93       1969.1862
      3861.01       2011.0290
      3863.10       2007.0115
      3865.18       1970.0706
      3867.26       1967.9497
      3869.34       1989.5123
      3871.42       2007.6093
      3873.51       1927.5784
      3875.59       1816.9600
      3877.67       1709.5374
      3879.75       1647.4508
      3881.84       1620.1169
      3883.92       1613.9142
      3886.00       1610.7017
      3888.08       1616.4038
      3890.16       1655.3301
      3892.25       1703.0211
      3894.33       1807.8211
      3896.41       1956.5506
      3898.49       2048.4572
      3900.58       1990.5047
      3902.66       1909.4125
      3904.74       1874.2885
      3906.82       1887.8753
      3908.91       1901.5617
      3910.99       1904.7936
      3913.07       1906.2750
      3915.15       1902.4940
      3917.23       1928.6871
      3919.32       1933.7488
      3921.40       1951.3653
      3923.48       1978.2328
      3925.56       2003.6261
      3927.65       2008.8891
      3929.73       2008.6106
      3931.81       1980.7773
      3933.89       1912.3874
      3935.97       1858.3006
      3938.06       1834.2426
      3940.14       1827.2480
      3942.22       1798.6169
      3944.30       1763.9238
      3946.39       1710.8882
      3948.47       1699.6644
      3950.55       1731.0340
      3952.63       1759.7363
      3954.72       1717.8700
      3956.80       1632.8002
      3958.88       1530.6503
      3960.96       1445.5042
      3963.04       1415.0205
      3965.13       1405.7451
      3967.21       1392.6779
      3969.29       1358.2975
      3971.37       1329.6558
      3973.46       1317.2978
      3975.54       1369.0807
      3977.62       1479.0206
      3979.70       1597.7899
      3981.78       1652.9715
      3983.87       1669.5941
      3985.95       1697.2939
      3988.03       1727.0448
      3990.11       1768.6829
      3992.20       1788.1215
      3994.28       1802.7860
      3996.36       1814.2255
      3998.44       1861.3966
      4000.53       1908.0364
      4002.61       1937.9141
      4004.69       1982.8176
      4006.77       2043.7672
      4008.85       2070.0474
      4010.94       2079.3570
      4013.02       2098.3510
      4015.10       2111.6780
      4017.18       2125.0909
      4019.27       2120.9344
      4021.35       2093.5221
      4023.43       2041.8691
      4025.51       2032.2552
      4027.59       2077.4438
      4029.68       2167.1067
      4031.76       2233.7335
      4033.84       2237.6027
      4035.92       2194.4967
      4038.01       2156.1882
      4040.09       2157.9373
      4042.17       2133.9851
      4044.25       2096.7381
      4046.34       2069.6500
      4048.42       2075.1539
      4050.50       2069.2042
      4052.58       2072.7983
      4054.66       2042.2585
      4056.75       1982.7369
      4058.83       1948.1354
      4060.91       1960.5316
      4062.99       1958.5224
      4065.08       1943.9430
      4067.16       1890.7697
      4069.24       1813.8200
      4071.32       1748.0328
      4073.40       1709.6434
      4075.49       1703.1841
      4077.57       1682.7434
      4079.65       1647.3074
      4081.73       1593.4247
      4083.82       1546.9936
      4085.90       1493.6384
      4087.98       1450.1176
      4090.06       1420.8905
      4092.15       1379.4908
      4094.23       1294.4243
      4096.31       1213.4874
      4098.39       1164.1088
      4100.47       1155.4534
      4102.56       1178.9944
      4104.64       1194.1827
      4106.72       1208.4542
      4108.80       1239.9096
      4110.89       1304.2168
      4112.97       1360.5358
      4115.05       1408.8687
      4117.13       1456.2336
      4119.21       1501.0390
      4121.30       1550.0752
      4123.38       1608.1039
      4125.46       1669.8427
      4127.54       1700.7376
      4129.63       1741.8042
      4131.71       1772.3982
      4133.79       1798.5550
      4135.87       1821.7404
      4137.96       1853.7410
      4140.04       1839.9758
      4142.12       1804.5773
      4144.20       1797.7898
      4146.28       1854.8232
      4148.37       1922.5004
      4150.45       1958.0803
      4152.53       1961.5300
      4154.61       1929.1206
      4156.70       1893.7568
      4158.78       1895.3484
      4160.86       1932.2107
      4162.94       1957.1313
      4165.02       1978.7253
      4167.11       2007.9431
      4169.19       2039.4703
      4171.27       2048.7258
      4173.35       2054.2357
      4175.44       2052.1871
      4177.52       2046.3692
      4179.60       2063.2469
      4181.68       2074.5247
      4183.77       2082.0264
      4185.85       2070.3990
      4187.93       2053.1554
      4190.01       2034.1839
      4192.09       2045.3075
      4194.18       2048.9315
      4196.26       2052.5623
      4198.34       2056.1993
      4200.42       2067.4474
      4202.51       2059.7016
      4204.59       2036.9189
      4206.67       2021.8259
      4208.75       2025.4147
      4210.83       2021.5489
      4212.92       2008.4218
      4215.00       2026.8690
      4217.08       2043.6039
      4219.16       2034.0802
      4221.25       2007.8872
      4223.33       1994.8542
      4225.41       2016.8932
      4227.49       2031.6778
      4229.58       2037.1702
      4231.66       2022.0872
      4233.74       1997.8946
      4235.82       1990.4228
      4237.90       1999.4854
      4239.99       2008.5924
      4242.07       1993.7257
      4244.15       1950.0207
      4246.23       1923.1503
      4248.32       1930.1320
      4250.40       1949.6717
      4252.48       1910.4516
      4254.56       1875.4731
      4256.64       1863.3137
      4258.73       1871.8069
      4260.81       1866.5364
      4262.89       1862.9980
      4264.97       1852.6275
      4267.06       1832.1622
      4269.14       1805.2626
      4271.22       1801.8420
      4273.30       1816.7426
      4275.38       1835.1449
      4277.47       1840.1247
      4279.55       1813.1128
      4281.63       1783.2086
      4283.71       1770.0271
      4285.80       1784.6681
      4287.88       1773.1103
      4289.96       1747.0845
      4292.04       1727.7965
      4294.13       1713.4485
      4296.21       1674.3657
      4298.29       1636.1734
      4300.37       1609.1949
      4302.45       1587.0409
      4304.54       1550.8430
      4306.62       1512.6823
      4308.70       1479.5444
      4310.78       1451.1360
      4312.87       1433.8003
      4314.95       1414.0650
      4317.03       1398.4615
      4319.11       1372.8768
      4321.19       1315.8699
      4323.28       1246.2197
      4325.36       1193.3730
      4327.44       1154.4049
      4329.52       1115.6816
      4331.61       1064.4442
      4333.69       1012.7571
      4335.77       969.81345
      4337.85       950.32221
      4339.94       960.84706
      4342.02       974.17616
      4344.10       983.15329
      4346.18       1001.3940
      4348.26       1049.5159
      4350.35       1098.9375
      4352.43       1147.5125
      4354.51       1192.7289
      4356.59       1244.3041
      4358.68       1282.6601
      4360.76       1323.4170
      4362.84       1366.7280
      4364.92       1394.6576
      4367.00       1395.8965
      4369.09       1406.1743
      4371.17       1434.9129
      4373.25       1468.2903
      4375.33       1495.5411
      4377.42       1516.2998
      4379.50       1530.2831
      4381.58       1538.7177
      4383.66       1578.8699
      4385.75       1608.1771
      4387.83       1626.0043
      4389.91       1631.9608
      4391.99       1643.9843
      4394.07       1634.8804
      4396.16       1631.8276
      4398.24       1637.8082
      4400.32       1654.4433
      4402.40       1672.7893
      4404.49       1686.6701
      4406.57       1689.7395
      4408.65       1685.0369
      4410.73       1689.6596
      4412.81       1703.6849
      4414.90       1719.4099
      4416.98       1717.7890
      4419.06       1730.4555
      4421.14       1733.6096
      4423.23       1725.6094
      4425.31       1711.3288
      4427.39       1731.9082
      4429.47       1749.5101
      4431.56       1754.3188
      4433.64       1738.2016
      4435.72       1712.7445
      4437.80       1695.4494
      4439.88       1690.7425
      4441.97       1700.0830
      4444.05       1706.3305
      4446.13       1703.1624
      4448.21       1696.8729
      4450.30       1692.1654
      4452.38       1687.4721
      4454.46       1699.9277
      4456.54       1709.3244
      4458.62       1714.0321
      4460.71       1718.7523
      4462.79       1742.6410
      4464.87       1744.2255
      4466.95       1732.9969
      4469.04       1739.3744
      4471.12       1753.8344
      4473.20       1729.7517
      4475.28       1693.4790
      4477.37       1667.1544
      4479.45       1657.9520
